Time (s)	Light Intensity (% of scale max)	Position (m)
0.0	0.04868	0.0
0.05	0.04869	0.0
0.1	0.0488	0.0
0.15	0.04886	0.0
0.2	0.0489	0.0
0.25	0.04889	0.0
0.3	0.04903	0.0
0.35	0.04903	0.0
0.4	0.04892	0.0
0.45	0.04872	0.0
0.5	0.04872	0.0
0.55	0.04887	0.0
0.6	0.04865	0.0
0.65	0.04897	0.0
0.7	0.04887	0.0
0.75	0.04918	0.0
0.8	0.04922	0.0
0.85	0.04921	0.0
0.9	0.04924	0.0
0.95	0.04919	0.0
1.0	0.0497	0.0
1.05	0.04985	0.0
1.1	0.04959	0.0
1.15	0.04973	0.0
1.2	0.04985	0.0
1.25	0.04987	0.0
1.3	0.05005	0.0
1.35	0.05014	0.0
1.4	0.04994	0.0
1.45	0.04944	-9.375e-06
1.5	0.04945	-0.00016875
1.55	0.04968	-0.00032812
1.6	0.05008	-0.0003375
1.65	0.04997	-0.0003375
1.7	0.05029	-0.0003375
1.75	0.05046	-0.0003375
1.8	0.05052	-0.0003375
1.85	0.05046	-0.0002625
1.9	0.0506	-0.0002625
1.95	0.05055	-0.0002625
2.0	0.0508	-0.0002625
2.05	0.05051	-0.0002625
2.1	0.05057	-0.0002625
2.15	0.05019	-0.0002625
2.2	0.05045	-0.0002625
2.25	0.05017	-0.0002625
2.3	0.05032	-0.0002625
2.35	0.05043	-0.0002625
2.4	0.05052	-0.0002625
2.45	0.05045	-0.00027188
2.5	0.05042	-0.00035625
2.55	0.05023	-0.00044063
2.6	0.0506	-0.00045
2.65	0.05058	-0.00045
2.7	0.05046	-0.00045
2.75	0.05014	-0.00045
2.8	0.05034	-0.00045
2.85	0.05032	-0.000525
2.9	0.05037	-0.001
2.95	0.05045	-0.0018
3.0	0.05038	-0.0022
3.05	0.05046	-0.0022
3.1	0.05026	-0.0021
3.15	0.05019	-0.0013
3.2	0.04996	0.0
3.25	0.04977	0.0
3.3	0.04968	0.0
3.35	0.04997	0.0
3.4	0.04977	0.0
3.45	0.04985	0.0
3.5	0.04999	0.0
3.55	0.04977	0.0
3.6	0.0498	0.0
3.65	0.04985	0.0
3.7	0.04988	0.0
3.75	0.04993	0.0
3.8	0.04982	0.0
3.85	0.05028	-8.4375e-05
3.9	0.04984	-0.00024375
3.95	0.05006	-0.0002625
4.0	0.05011	-0.0002625
4.05	0.04993	-0.0002625
4.1	0.04987	-0.00028125
4.15	0.05003	-0.0003
4.2	0.05	-0.0003
4.25	0.04979	-0.0004125
4.3	0.05016	-0.00061875
4.35	0.04994	-0.00088125
4.4	0.05005	-0.0013
4.45	0.05022	-0.0021
4.5	0.05013	-0.0029
4.55	0.0497	-0.0034
4.6	0.04912	-0.0039
4.65	0.0493	-0.0047
4.7	0.04878	-0.0056
4.75	0.0489	-0.0066
4.8	0.04877	-0.0073
4.85	0.04854	-0.0074
4.9	0.04868	-0.0073
4.95	0.04837	-0.0072
5.0	0.04848	-0.0072
5.05	0.04834	-0.0072
5.1	0.04831	-0.0071
5.15	0.04854	-0.0067
5.2	0.0484	-0.0065
5.25	0.04836	-0.0065
5.3	0.04854	-0.0066
5.35	0.0486	-0.0069
5.4	0.0484	-0.0073
5.45	0.04872	-0.0076
5.5	0.04852	-0.0085
5.55	0.04803	-0.0096
5.6	0.04767	-0.0106
5.65	0.04755	-0.0117
5.7	0.04735	-0.0127
5.75	0.04749	-0.0134
5.8	0.04756	-0.0139
5.85	0.04742	-0.0143
5.9	0.04762	-0.0147
5.95	0.04724	-0.0149
6.0	0.04721	-0.015
6.05	0.04713	-0.015
6.1	0.04732	-0.015
6.15	0.04729	-0.015
6.2	0.04703	-0.015
6.25	0.0472	-0.0146
6.3	0.04701	-0.0144
6.35	0.04747	-0.0143
6.4	0.04738	-0.0143
6.45	0.04713	-0.0143
6.5	0.04741	-0.0143
6.55	0.04735	-0.0144
6.6	0.04721	-0.0147
6.65	0.04732	-0.015
6.7	0.04707	-0.0154
6.75	0.04729	-0.0163
6.8	0.047	-0.0174
6.85	0.04715	-0.0185
6.9	0.04695	-0.0197
6.95	0.04729	-0.0207
7.0	0.04707	-0.0215
7.05	0.04724	-0.0222
7.1	0.04726	-0.0226
7.15	0.04721	-0.0227
7.2	0.04716	-0.0225
7.25	0.04716	-0.0224
7.3	0.04713	-0.0224
7.35	0.04723	-0.0224
7.4	0.04735	-0.0224
7.45	0.04739	-0.0222
7.5	0.04707	-0.0222
7.55	0.04733	-0.0222
7.6	0.04712	-0.0222
7.65	0.04692	-0.0223
7.7	0.04707	-0.0224
7.75	0.0473	-0.0225
7.8	0.04707	-0.0229
7.85	0.04721	-0.024
7.9	0.04742	-0.0253
7.95	0.04747	-0.0265
8.0	0.04747	-0.0275
8.05	0.04741	-0.0282
8.1	0.04749	-0.0291
8.15	0.04739	-0.0303
8.2	0.04733	-0.0314
8.25	0.04756	-0.0321
8.3	0.04773	-0.0324
8.35	0.04741	-0.0324
8.4	0.047	-0.0321
8.45	0.04733	-0.0319
8.5	0.04715	-0.0319
8.55	0.04671	-0.0319
8.6	0.04675	-0.0319
8.65	0.04637	-0.0316
8.7	0.04671	-0.0316
8.75	0.04655	-0.0317
8.8	0.0463	-0.0319
8.85	0.04677	-0.0322
8.9	0.04678	-0.033
8.95	0.04686	-0.0339
9.0	0.04675	-0.0354
9.05	0.04753	-0.0368
9.1	0.04825	-0.0379
9.15	0.0486	-0.0388
9.2	0.04765	-0.0397
9.25	0.04744	-0.0407
9.3	0.04735	-0.0416
9.35	0.04768	-0.0424
9.4	0.04836	-0.0429
9.45	0.0484	-0.0429
9.5	0.04852	-0.0428
9.55	0.04849	-0.0423
9.6	0.04848	-0.0422
9.65	0.04863	-0.0422
9.7	0.04866	-0.0422
9.75	0.04834	-0.0421
9.8	0.04871	-0.0419
9.85	0.04872	-0.0419
9.9	0.04875	-0.0419
9.95	0.04886	-0.042
10.0	0.04799	-0.0425
10.05	0.04823	-0.0428
10.1	0.04874	-0.0434
10.15	0.04915	-0.0443
10.2	0.04831	-0.0455
10.25	0.04836	-0.047
10.3	0.04884	-0.0485
10.35	0.04929	-0.0496
10.4	0.04884	-0.0507
10.45	0.04808	-0.0519
10.5	0.04776	-0.0532
10.55	0.04797	-0.0538
10.6	0.04759	-0.0539
10.65	0.0475	-0.0539
10.7	0.04758	-0.0537
10.75	0.04808	-0.0533
10.8	0.04842	-0.0532
10.85	0.04832	-0.0532
10.9	0.04819	-0.0532
10.95	0.04817	-0.0532
11.0	0.04825	-0.0532
11.05	0.04805	-0.0532
11.1	0.04802	-0.0533
11.15	0.04823	-0.0533
11.2	0.04739	-0.0535
11.25	0.04735	-0.0539
11.3	0.04779	-0.0545
11.35	0.04791	-0.055
11.4	0.04799	-0.0558
11.45	0.04781	-0.0565
11.5	0.04703	-0.0575
11.55	0.04672	-0.0587
11.6	0.04625	-0.0599
11.65	0.04599	-0.0606
11.7	0.04611	-0.0608
11.75	0.04613	-0.0611
11.8	0.04584	-0.0612
11.85	0.04593	-0.0611
11.9	0.04613	-0.0606
11.95	0.04623	-0.0603
12.0	0.04623	-0.0603
12.05	0.04628	-0.0603
12.1	0.04633	-0.0603
12.15	0.04634	-0.0603
12.2	0.04633	-0.0604
12.25	0.04651	-0.0604
12.3	0.04631	-0.0606
12.35	0.0459	-0.0608
12.4	0.04614	-0.0613
12.45	0.04573	-0.0622
12.5	0.04565	-0.0633
12.55	0.04498	-0.0646
12.6	0.0441	-0.0658
12.65	0.04405	-0.0666
12.7	0.04402	-0.0672
12.75	0.04355	-0.0674
12.8	0.04381	-0.0674
12.85	0.04369	-0.0672
12.9	0.04353	-0.0666
12.95	0.04366	-0.0665
13.0	0.04352	-0.0665
13.05	0.0437	-0.0665
13.1	0.04352	-0.0665
13.15	0.04343	-0.0665
13.2	0.04369	-0.0665
13.25	0.04329	-0.0666
13.3	0.04315	-0.0667
13.35	0.0434	-0.0671
13.4	0.04344	-0.0675
13.45	0.0434	-0.0685
13.5	0.04317	-0.0696
13.55	0.04311	-0.0706
13.6	0.04277	-0.0715
13.65	0.04265	-0.0722
13.7	0.04231	-0.0729
13.75	0.04253	-0.0736
13.8	0.04243	-0.0738
13.85	0.04225	-0.0737
13.9	0.04218	-0.0735
13.95	0.04271	-0.0733
14.0	0.04239	-0.0732
14.05	0.0425	-0.0732
14.1	0.0425	-0.0732
14.15	0.04239	-0.0729
14.2	0.0425	-0.0728
14.25	0.04221	-0.0728
14.3	0.04224	-0.0729
14.35	0.04231	-0.0729
14.4	0.04221	-0.0733
14.45	0.04236	-0.0737
14.5	0.0425	-0.0744
14.55	0.04276	-0.0754
14.6	0.04317	-0.0764
14.65	0.0428	-0.0775
14.7	0.04311	-0.0783
14.75	0.04312	-0.079
14.8	0.04314	-0.0795
14.85	0.04335	-0.0798
14.9	0.04324	-0.08
14.95	0.04347	-0.0801
15.0	0.04356	-0.0798
15.05	0.04391	-0.0793
15.1	0.04376	-0.0793
15.15	0.04375	-0.0793
15.2	0.04401	-0.0793
15.25	0.04376	-0.0788
15.3	0.04379	-0.0787
15.35	0.04396	-0.0787
15.4	0.04373	-0.0787
15.45	0.04349	-0.0789
15.5	0.04349	-0.0795
15.55	0.0434	-0.0802
15.6	0.04384	-0.0809
15.65	0.0441	-0.0816
15.7	0.04449	-0.0822
15.75	0.0452	-0.0827
15.8	0.04649	-0.0832
15.85	0.04742	-0.0838
15.9	0.04781	-0.0845
15.95	0.04845	-0.0851
16.0	0.04842	-0.0857
16.05	0.04849	-0.0861
16.1	0.04822	-0.0865
16.15	0.04832	-0.0866
16.2	0.04852	-0.0866
16.25	0.04939	-0.086
16.3	0.04944	-0.0859
16.35	0.04956	-0.0859
16.4	0.0499	-0.0859
16.45	0.04984	-0.0859
16.5	0.04968	-0.0859
16.55	0.04965	-0.0859
16.6	0.04977	-0.086
16.65	0.04941	-0.086
16.7	0.04933	-0.0864
16.75	0.04855	-0.087
16.8	0.04877	-0.0882
16.85	0.04984	-0.0894
16.9	0.05103	-0.0902
16.95	0.05255	-0.0911
17.0	0.05716	-0.0918
17.05	0.0589	-0.0924
17.1	0.05928	-0.0926
17.15	0.06003	-0.0928
17.2	0.06015	-0.0929
17.25	0.06093	-0.093
17.3	0.06085	-0.0932
17.35	0.06099	-0.0929
17.4	0.06546	-0.0925
17.45	0.06554	-0.0925
17.5	0.06555	-0.0925
17.55	0.06575	-0.0925
17.6	0.0654	-0.0924
17.65	0.06566	-0.0924
17.7	0.06578	-0.0924
17.75	0.06563	-0.0925
17.8	0.06577	-0.0925
17.85	0.06561	-0.0926
17.9	0.06551	-0.0927
17.95	0.06302	-0.0931
18.0	0.06194	-0.0935
18.05	0.06221	-0.0939
18.1	0.06126	-0.0948
18.15	0.06042	-0.0957
18.2	0.05869	-0.0966
18.25	0.05826	-0.0972
18.3	0.0582	-0.0977
18.35	0.05875	-0.0982
18.4	0.05859	-0.0986
18.45	0.05914	-0.0989
18.5	0.05919	-0.0989
18.55	0.05919	-0.0989
18.6	0.05919	-0.0987
18.65	0.0645	-0.0982
18.7	0.06454	-0.0982
18.75	0.06462	-0.0982
18.8	0.06448	-0.0982
18.85	0.06441	-0.0982
18.9	0.06439	-0.0982
18.95	0.06432	-0.0982
19.0	0.0645	-0.0982
19.05	0.06432	-0.0983
19.1	0.06438	-0.0984
19.15	0.06259	-0.0986
19.2	0.05957	-0.099
19.25	0.05937	-0.0992
19.3	0.06081	-0.0997
19.35	0.06297	-0.1003
19.4	0.06517	-0.101
19.45	0.07307	-0.1019
19.5	0.07657	-0.1028
19.55	0.07822	-0.1037
19.6	0.0788	-0.1038
19.65	0.07901	-0.1038
19.7	0.07895	-0.1038
19.75	0.07906	-0.1038
19.8	0.07835	-0.1038
19.85	0.07944	-0.1037
19.9	0.08287	-0.1032
19.95	0.08395	-0.1031
20.0	0.0838	-0.1031
20.05	0.08395	-0.1031
20.1	0.08409	-0.1031
20.15	0.0843	-0.1031
20.2	0.08444	-0.1031
20.25	0.08446	-0.1031
20.3	0.08453	-0.1031
20.35	0.0847	-0.1031
20.4	0.08472	-0.1032
20.45	0.08463	-0.1032
20.5	0.08452	-0.1033
20.55	0.07861	-0.1037
20.6	0.0778	-0.104
20.65	0.07747	-0.1043
20.7	0.07692	-0.1047
20.75	0.07468	-0.1051
20.8	0.07391	-0.1054
20.85	0.07298	-0.1057
20.9	0.07161	-0.1061
20.95	0.06908	-0.1066
21.0	0.06807	-0.107
21.05	0.06688	-0.1076
21.1	0.06596	-0.1081
21.15	0.06509	-0.1085
21.2	0.06509	-0.1086
21.25	0.06499	-0.1088
21.3	0.06483	-0.1089
21.35	0.06485	-0.1092
21.4	0.06511	-0.1097
21.45	0.06511	-0.1101
21.5	0.06573	-0.1104
21.55	0.06645	-0.1106
21.6	0.06725	-0.1109
21.65	0.06743	-0.1112
21.7	0.06828	-0.1114
21.75	0.06859	-0.1114
21.8	0.07001	-0.1113
21.85	0.07431	-0.111
21.9	0.07524	-0.111
21.95	0.07553	-0.111
22.0	0.07584	-0.111
22.05	0.07581	-0.111
22.1	0.07608	-0.111
22.15	0.07649	-0.111
22.2	0.07907	-0.1107
22.25	0.08047	-0.1107
22.3	0.08022	-0.1107
22.35	0.08022	-0.1107
22.4	0.08035	-0.1107
22.45	0.07976	-0.1108
22.5	0.07593	-0.111
22.55	0.073	-0.1114
22.6	0.07146	-0.1116
22.65	0.07191	-0.112
22.7	0.07317	-0.1122
22.75	0.07434	-0.1125
22.8	0.07562	-0.1128
22.85	0.07645	-0.1132
22.9	0.07823	-0.1136
22.95	0.07887	-0.1138
23.0	0.0791	-0.114
23.05	0.07936	-0.1143
23.1	0.07933	-0.1146
23.15	0.07909	-0.115
23.2	0.0787	-0.1152
23.25	0.07837	-0.1155
23.3	0.07695	-0.1158
23.35	0.07605	-0.116
23.4	0.07556	-0.1161
23.45	0.07394	-0.1164
23.5	0.07294	-0.1167
23.55	0.07314	-0.1168
23.6	0.07303	-0.1168
23.65	0.07079	-0.1171
23.7	0.06952	-0.1174
23.75	0.06923	-0.1176
23.8	0.06915	-0.1176
23.85	0.06921	-0.1176
23.9	0.06923	-0.1176
23.95	0.06917	-0.1174
24.0	0.06943	-0.117
24.05	0.06952	-0.117
24.1	0.06946	-0.117
24.15	0.0695	-0.117
24.2	0.06949	-0.117
24.25	0.06985	-0.117
24.3	0.06989	-0.117
24.35	0.06969	-0.117
24.4	0.07007	-0.117
24.45	0.06979	-0.1171
24.5	0.06964	-0.1171
24.55	0.06956	-0.1171
24.6	0.06897	-0.1174
24.65	0.06821	-0.1176
24.7	0.0668	-0.118
24.75	0.06461	-0.1185
24.8	0.06291	-0.1189
24.85	0.06038	-0.1194
24.9	0.05934	-0.1197
24.95	0.05815	-0.1201
25.0	0.05782	-0.1203
25.05	0.05664	-0.1205
25.1	0.05646	-0.1208
25.15	0.05591	-0.1211
25.2	0.05524	-0.1214
25.25	0.05489	-0.1215
25.3	0.0547	-0.1217
25.35	0.0545	-0.1219
25.4	0.05399	-0.1221
25.45	0.05392	-0.1222
25.5	0.05322	-0.1226
25.55	0.05264	-0.123
25.6	0.05237	-0.1233
25.65	0.05264	-0.1234
25.7	0.05205	-0.1237
25.75	0.05202	-0.124
25.8	0.05165	-0.1243
25.85	0.05132	-0.1245
25.9	0.05135	-0.1248
25.95	0.05116	-0.1249
26.0	0.05113	-0.1251
26.05	0.05017	-0.1255
26.1	0.05005	-0.1258
26.15	0.04971	-0.126
26.2	0.05006	-0.126
26.25	0.04977	-0.126
26.3	0.04967	-0.126
26.35	0.04961	-0.126
26.4	0.04948	-0.126
26.45	0.04915	-0.1254
26.5	0.04932	-0.1253
26.55	0.04913	-0.1253
26.6	0.04903	-0.1253
26.65	0.04901	-0.1253
26.7	0.04892	-0.1253
26.75	0.04893	-0.1253
26.8	0.04898	-0.1253
26.85	0.0491	-0.1253
26.9	0.04906	-0.1253
26.95	0.04927	-0.1253
27.0	0.04897	-0.1255
27.05	0.0491	-0.1259
27.1	0.04889	-0.1262
27.15	0.04849	-0.1266
27.2	0.04778	-0.1269
27.25	0.04747	-0.1271
27.3	0.04778	-0.1272
27.35	0.04744	-0.1274
27.4	0.04555	-0.1281
27.45	0.04518	-0.1285
27.5	0.04471	-0.1289
27.55	0.04434	-0.1294
27.6	0.04332	-0.1298
27.65	0.04309	-0.1304
27.7	0.04276	-0.1309
27.75	0.04277	-0.1313
27.8	0.04236	-0.1315
27.85	0.04256	-0.1316
27.9	0.0426	-0.1317
27.95	0.04256	-0.132
28.0	0.04263	-0.1324
28.05	0.04272	-0.1328
28.1	0.04292	-0.1331
28.15	0.04333	-0.1334
28.2	0.0437	-0.1339
28.25	0.0442	-0.1344
28.3	0.04472	-0.1349
28.35	0.04488	-0.1351
28.4	0.04532	-0.1351
28.45	0.04533	-0.1351
28.5	0.04538	-0.1354
28.55	0.04584	-0.1356
28.6	0.04607	-0.1356
28.65	0.04602	-0.1356
28.7	0.04616	-0.1357
28.75	0.04602	-0.1358
28.8	0.04669	-0.1359
28.85	0.04669	-0.1357
28.9	0.04819	-0.135
28.95	0.04865	-0.1348
29.0	0.04842	-0.1348
29.05	0.04855	-0.1348
29.1	0.0482	-0.1348
29.15	0.04865	-0.1348
29.2	0.0486	-0.1348
29.25	0.04857	-0.1348
29.3	0.04845	-0.1348
29.35	0.0489	-0.135
29.4	0.04735	-0.1353
29.45	0.04697	-0.1357
29.5	0.04695	-0.1358
29.55	0.0473	-0.1363
29.6	0.05154	-0.1371
29.65	0.05458	-0.138
29.7	0.05826	-0.139
29.75	0.06186	-0.1399
29.8	0.06477	-0.1405
29.85	0.07236	-0.1411
29.9	0.07651	-0.1417
29.95	0.08049	-0.1421
30.0	0.0896	-0.1425
30.05	0.09364	-0.1428
30.1	0.09853	-0.1432
30.15	0.10622	-0.1437
30.2	0.11832	-0.1441
30.25	0.12219	-0.1444
30.3	0.12617	-0.1446
30.35	0.13058	-0.1448
30.4	0.13339	-0.145
30.45	0.13409	-0.145
30.5	0.1342	-0.145
30.55	0.13536	-0.1449
30.6	0.15479	-0.1444
30.65	0.15987	-0.1444
30.7	0.15979	-0.1444
30.75	0.15993	-0.1444
30.8	0.15991	-0.1444
30.85	0.15967	-0.1444
30.9	0.16005	-0.1444
30.95	0.15994	-0.1444
31.0	0.15962	-0.1444
31.05	0.1595	-0.1444
31.1	0.15765	-0.1444
31.15	0.15007	-0.1446
31.2	0.13507	-0.145
31.25	0.13663	-0.1452
31.3	0.14615	-0.1455
31.35	0.16795	-0.1462
31.4	0.19583	-0.1473
31.45	0.22537	-0.148
31.5	0.24153	-0.1487
31.55	0.25851	-0.1496
31.6	0.27132	-0.1503
31.65	0.28647	-0.1507
31.7	0.29501	-0.1512
31.75	0.30212	-0.1518
31.8	0.31303	-0.1523
31.85	0.31876	-0.1528
31.9	0.3223	-0.1532
31.95	0.3277	-0.1538
32.0	0.33337	-0.1541
32.05	0.33479	-0.1543
32.1	0.33884	-0.1546
32.15	0.34375	-0.1548
32.2	0.34302	-0.1548
32.25	0.34251	-0.1547
32.3	0.35799	-0.1544
32.35	0.35815	-0.1543
32.4	0.35774	-0.1543
32.45	0.35791	-0.1543
32.5	0.35846	-0.1543
32.55	0.35901	-0.1543
32.6	0.35927	-0.1543
32.65	0.35918	-0.1543
32.7	0.35915	-0.1543
32.75	0.35924	-0.1543
32.8	0.35887	-0.1543
32.85	0.35791	-0.1544
32.9	0.34988	-0.1546
32.95	0.34781	-0.1549
33.0	0.35587	-0.1558
33.05	0.36821	-0.1568
33.1	0.3885	-0.1577
33.15	0.40294	-0.1587
33.2	0.41489	-0.1595
33.25	0.44003	-0.1603
33.3	0.45439	-0.1612
33.35	0.46634	-0.1618
33.4	0.47672	-0.1623
33.45	0.49391	-0.1627
33.5	0.50002	-0.1631
33.55	0.50713	-0.1635
33.6	0.51997	-0.1639
33.65	0.52901	-0.1643
33.7	0.53911	-0.1647
33.75	0.55676	-0.165
33.8	0.55963	-0.1651
33.85	0.56061	-0.1651
33.9	0.56166	-0.1651
33.95	0.5733	-0.1649
34.0	0.57312	-0.1649
34.05	0.57315	-0.1649
34.1	0.57268	-0.1649
34.15	0.57156	-0.1649
34.2	0.57098	-0.1649
34.25	0.57368	-0.1649
34.3	0.57414	-0.1648
34.35	0.57397	-0.1648
34.4	0.57286	-0.1648
34.45	0.56807	-0.1649
34.5	0.56383	-0.1651
34.55	0.56528	-0.1653
34.6	0.58287	-0.1657
34.65	0.60602	-0.1665
34.7	0.62244	-0.1673
34.75	0.65385	-0.1682
34.8	0.66776	-0.1688
34.85	0.677	-0.1692
34.9	0.69518	-0.1697
34.95	0.70358	-0.1701
35.0	0.71552	-0.1704
35.05	0.7233	-0.1705
35.1	0.72836	-0.1707
35.15	0.73491	-0.171
35.2	0.7426	-0.1711
35.25	0.74881	-0.1713
35.3	0.76077	-0.1716
35.35	0.77263	-0.1718
35.4	0.78149	-0.1722
35.45	0.78908	-0.1724
35.5	0.8046	-0.1727
35.55	0.80812	-0.1729
35.6	0.80975	-0.1729
35.65	0.81105	-0.1729
35.7	0.81053	-0.1729
35.75	0.82016	-0.1728
35.8	0.82553	-0.1727
35.85	0.82526	-0.1727
35.9	0.82538	-0.1727
35.95	0.82579	-0.1727
36.0	0.82553	-0.1727
36.05	0.82466	-0.1727
36.1	0.82388	-0.1727
36.15	0.82394	-0.1727
36.2	0.82397	-0.1727
36.25	0.81828	-0.1728
36.3	0.81369	-0.1729
36.35	0.81712	-0.1732
36.4	0.83714	-0.1738
36.45	0.85236	-0.1744
36.5	0.86787	-0.175
36.55	0.879	-0.1755
36.6	0.90454	-0.1761
36.65	0.91563	-0.1767
36.7	0.92226	-0.1771
36.75	0.94014	-0.1776
36.8	0.95398	-0.1781
36.85	0.96304	-0.1786
36.9	0.97391	-0.1789
36.95	0.98009	-0.1792
37.0	0.98351	-0.1794
37.05	0.99319	-0.1797
37.1	0.99373	-0.1799
37.15	0.99538	-0.1801
37.2	1.00107	-0.1803
37.25	1.00392	-0.1806
37.3	1.00574	-0.1808
37.35	1.01202	-0.181
37.4	1.0137	-0.1811
37.45	1.01672	-0.1814
37.5	1.01886	-0.1816
37.55	1.02023	-0.1818
37.6	1.02151	-0.1819
37.65	1.02229	-0.1821
37.7	1.02737	-0.1824
37.75	1.02815	-0.1825
37.8	1.03052	-0.1827
37.85	1.03017	-0.1827
37.9	1.03294	-0.1827
37.95	1.03955	-0.1825
38.0	1.04271	-0.1824
38.05	1.04298	-0.1824
38.1	1.04393	-0.1824
38.15	1.04453	-0.1824
38.2	1.04327	-0.1824
38.25	1.04286	-0.1824
38.3	1.04295	-0.1824
38.35	1.04338	-0.1823
38.4	1.04253	-0.1823
38.45	1.04329	-0.1823
38.5	1.04416	-0.1823
38.55	1.04346	-0.1824
38.6	1.02788	-0.1825
38.65	1.02608	-0.1826
38.7	1.02586	-0.1827
38.75	1.02589	-0.1829
38.8	1.02858	-0.1831
38.85	1.03131	-0.1835
38.9	1.03569	-0.1839
38.95	1.04152	-0.1842
39.0	1.04362	-0.1845
39.05	1.04536	-0.1848
39.1	1.04645	-0.1851
39.15	1.04799	-0.1855
39.2	1.04962	-0.1859
39.25	1.05112	-0.186
39.3	1.05067	-0.1862
39.35	1.05031	-0.1863
39.4	1.05035	-0.1866
39.45	1.05022	-0.1868
39.5	1.05099	-0.1871
39.55	1.05373	-0.1875
39.6	1.05339	-0.1877
39.65	1.05223	-0.1879
39.7	1.05078	-0.188
39.75	1.05028	-0.188
39.8	1.05031	-0.1882
39.85	1.05077	-0.1884
39.9	1.05493	-0.1886
39.95	1.05711	-0.1887
40.0	1.05841	-0.1889
40.05	1.05911	-0.189
40.1	1.05931	-0.1891
40.15	1.06029	-0.1893
40.2	1.06061	-0.1894
40.25	1.06207	-0.1895
40.3	1.06302	-0.1896
40.35	1.06477	-0.1897
40.4	1.06538	-0.19
40.45	1.06654	-0.1902
40.5	1.06601	-0.1902
40.55	1.06592	-0.1902
40.6	1.07231	-0.1899
40.65	1.08148	-0.1897
40.7	1.08093	-0.1897
40.75	1.08034	-0.1897
40.8	1.07964	-0.1897
40.85	1.07944	-0.1897
40.9	1.07948	-0.1897
40.95	1.08008	-0.1897
41.0	1.08078	-0.1897
41.05	1.08051	-0.1897
41.1	1.07948	-0.1897
41.15	1.07924	-0.1897
41.2	1.07835	-0.1897
41.25	1.07623	-0.1899
41.3	1.07024	-0.1902
41.35	1.06718	-0.1905
41.4	1.06586	-0.1907
41.45	1.06187	-0.191
41.5	1.06116	-0.1914
41.55	1.05663	-0.1918
41.6	1.04958	-0.1921
41.65	1.04729	-0.1925
41.7	1.04555	-0.1927
41.75	1.04385	-0.1929
41.8	1.0425	-0.193
41.85	1.04131	-0.1932
41.9	1.04344	-0.1935
41.95	1.04515	-0.1937
42.0	1.04616	-0.1939
42.05	1.04649	-0.1941
42.1	1.04735	-0.1943
42.15	1.04773	-0.1945
42.2	1.04689	-0.1948
42.25	1.0471	-0.1952
42.3	1.04704	-0.1954
42.35	1.04713	-0.1954
42.4	1.04881	-0.1955
42.45	1.04977	-0.1956
42.5	1.04906	-0.1959
42.55	1.04863	-0.1962
42.6	1.04791	-0.1964
42.65	1.04872	-0.1966
42.7	1.0511	-0.197
42.75	1.0527	-0.1971
42.8	1.05424	-0.1973
42.85	1.05551	-0.1975
42.9	1.05605	-0.1977
42.95	1.05678	-0.1978
43.0	1.05785	-0.198
43.05	1.05885	-0.1981
43.1	1.06033	-0.1983
43.15	1.06493	-0.1985
43.2	1.0648	-0.1986
43.25	1.06587	-0.1987
43.3	1.06789	-0.1989
43.35	1.07063	-0.1992
43.4	1.07112	-0.1993
43.45	1.07399	-0.1993
43.5	1.07523	-0.1993
43.55	1.07585	-0.1992
43.6	1.08691	-0.1987
43.65	1.10419	-0.1986
43.7	1.1041	-0.1986
43.75	1.10416	-0.1986
43.8	1.10574	-0.1986
43.85	1.10629	-0.1986
43.9	1.10632	-0.1986
43.95	1.10622	-0.1986
44.0	1.10623	-0.1986
44.05	1.10635	-0.1986
44.1	1.10738	-0.1986
44.15	1.10838	-0.1986
44.2	1.10889	-0.1986
44.25	1.10808	-0.1986
44.3	1.10501	-0.1988
44.35	1.09451	-0.1991
44.4	1.0876	-0.1994
44.45	1.08949	-0.1998
44.5	1.09201	-0.2001
44.55	1.10393	-0.2005
44.6	1.1105	-0.201
44.65	1.11499	-0.2013
44.7	1.12636	-0.2017
44.75	1.13371	-0.2021
44.8	1.13885	-0.2024
44.85	1.15659	-0.2028
44.9	1.16455	-0.2032
44.95	1.16943	-0.2035
45.0	1.17439	-0.2035
45.05	1.18301	-0.2039
45.1	1.19034	-0.2041
45.15	1.1944	-0.2042
45.2	1.1963	-0.2043
45.25	1.19913	-0.2044
45.3	1.20682	-0.2046
45.35	1.21272	-0.2049
45.4	1.21664	-0.205
45.45	1.22475	-0.2051
45.5	1.2278	-0.2053
45.55	1.22986	-0.2054
45.6	1.23775	-0.2056
45.65	1.24266	-0.2059
45.7	1.24841	-0.2061
45.75	1.25458	-0.2063
45.8	1.25543	-0.2063
45.85	1.25682	-0.2064
45.9	1.26347	-0.2067
45.95	1.26746	-0.207
46.0	1.27147	-0.2073
46.05	1.27138	-0.2074
46.1	1.27147	-0.2074
46.15	1.27054	-0.2074
46.2	1.27156	-0.2074
46.25	1.27429	-0.2073
46.3	1.2834	-0.207
46.35	1.28526	-0.2069
46.4	1.28514	-0.2069
46.45	1.28447	-0.2069
46.5	1.28656	-0.2069
46.55	1.28745	-0.2069
46.6	1.28647	-0.2069
46.65	1.28627	-0.2069
46.7	1.28548	-0.2069
46.75	1.28551	-0.2069
46.8	1.28761	-0.207
46.85	1.28735	-0.207
46.9	1.28316	-0.2072
46.95	1.28081	-0.2074
47.0	1.2755	-0.2079
47.05	1.26419	-0.2085
47.1	1.24918	-0.2092
47.15	1.22499	-0.21
47.2	1.17387	-0.2106
47.25	1.1516	-0.211
47.3	1.13226	-0.2113
47.35	1.09926	-0.2116
47.4	1.08467	-0.2118
47.45	1.0712	-0.212
47.5	1.05884	-0.2121
47.55	1.0307	-0.2123
47.6	0.99879	-0.2127
47.65	0.97299	-0.213
47.7	0.92448	-0.2133
47.75	0.90381	-0.2136
47.8	0.89272	-0.2138
47.85	0.86705	-0.214
47.9	0.85727	-0.2141
47.95	0.84073	-0.2143
48.0	0.80795	-0.2146
48.05	0.79991	-0.2147
48.1	0.78944	-0.2149
48.15	0.76691	-0.215
48.2	0.75064	-0.2152
48.25	0.73868	-0.2153
48.3	0.71672	-0.2155
48.35	0.70206	-0.2157
48.4	0.6993	-0.2158
48.45	0.67249	-0.216
48.5	0.67126	-0.2161
48.55	0.67027	-0.2161
48.6	0.65109	-0.2159
48.65	0.61815	-0.2155
48.7	0.61517	-0.2155
48.75	0.61409	-0.2155
48.8	0.61382	-0.2155
48.85	0.61504	-0.2155
48.9	0.6071	-0.2155
48.95	0.60477	-0.2154
49.0	0.60504	-0.2154
49.05	0.60434	-0.2154
49.1	0.60373	-0.2154
49.15	0.60291	-0.2154
49.2	0.60349	-0.2155
49.25	0.62672	-0.2159
49.3	0.63335	-0.2163
49.35	0.61908	-0.2167
49.4	0.5932	-0.217
49.45	0.5912	-0.217
49.5	0.57945	-0.2173
49.55	0.5312	-0.2178
49.6	0.51241	-0.2183
49.65	0.49545	-0.2187
49.7	0.47256	-0.219
49.75	0.46124	-0.2193
49.8	0.45457	-0.2196
49.85	0.44556	-0.22
49.9	0.42953	-0.2203
49.95	0.42668	-0.2205
50.0	0.42136	-0.2207
50.05	0.41429	-0.2209
50.1	0.41071	-0.221
50.15	0.40659	-0.2213
50.2	0.39482	-0.2215
50.25	0.3904	-0.2219
50.3	0.38808	-0.2222
50.35	0.38243	-0.2224
50.4	0.3792	-0.2226
50.45	0.3754	-0.223
50.5	0.37067	-0.2233
50.55	0.36989	-0.2234
50.6	0.36935	-0.2235
50.65	0.3692	-0.2236
50.7	0.37021	-0.2237
50.75	0.36862	-0.224
50.8	0.3669	-0.2241
50.85	0.36575	-0.2242
50.9	0.36517	-0.2243
50.95	0.36418	-0.2246
51.0	0.36359	-0.2248
51.05	0.36475	-0.2248
51.1	0.36601	-0.2246
51.15	0.3658	-0.2242
51.2	0.36575	-0.2242
51.25	0.36591	-0.2242
51.3	0.36559	-0.2242
51.35	0.36568	-0.2242
51.4	0.36617	-0.2242
51.45	0.36787	-0.2241
51.5	0.36798	-0.2241
51.55	0.36752	-0.2241
51.6	0.36754	-0.2241
51.65	0.36725	-0.2241
51.7	0.36668	-0.2241
51.75	0.36681	-0.2242
51.8	0.36671	-0.2245
51.85	0.36728	-0.2247
51.9	0.36676	-0.2248
51.95	0.3662	-0.225
52.0	0.36586	-0.2251
52.05	0.36519	-0.2254
52.1	0.3642	-0.2259
52.15	0.36406	-0.2264
52.2	0.36385	-0.2269
52.25	0.36063	-0.2273
52.3	0.35674	-0.2278
52.35	0.3526	-0.2282
52.4	0.3432	-0.2285
52.45	0.3343	-0.2289
52.5	0.32811	-0.2292
52.55	0.32675	-0.2293
52.6	0.31909	-0.2295
52.65	0.31192	-0.2298
52.7	0.30243	-0.2302
52.75	0.28593	-0.2304
52.8	0.28181	-0.2305
52.85	0.27368	-0.2308
52.9	0.25629	-0.2311
52.95	0.2518	-0.2312
53.0	0.24818	-0.2313
53.05	0.24078	-0.2316
53.1	0.2245	-0.2318
53.15	0.22198	-0.2319
53.2	0.21619	-0.2321
53.25	0.20862	-0.2323
53.3	0.20837	-0.2323
53.35	0.20651	-0.2321
53.4	0.18758	-0.2316
53.45	0.1778	-0.2316
53.5	0.17818	-0.2316
53.55	0.17802	-0.2316
53.6	0.17886	-0.2316
53.65	0.17883	-0.2316
53.7	0.17816	-0.2316
53.75	0.17767	-0.2316
53.8	0.17847	-0.2316
53.85	0.17929	-0.2316
53.9	0.17986	-0.2317
53.95	0.18462	-0.2318
54.0	0.19101	-0.232
54.05	0.18762	-0.2321
54.1	0.18283	-0.2324
54.15	0.1783	-0.2325
54.2	0.17134	-0.2328
54.25	0.15955	-0.2335
54.3	0.14426	-0.2339
54.35	0.14	-0.2342
54.4	0.13623	-0.2344
54.45	0.13075	-0.2348
54.5	0.11986	-0.2352
54.55	0.11446	-0.2355
54.6	0.10971	-0.2359
54.65	0.1062	-0.2363
54.7	0.09991	-0.2366
54.75	0.09749	-0.2369
54.8	0.09479	-0.2373
54.85	0.08975	-0.2376
54.9	0.08797	-0.2378
54.95	0.08624	-0.2381
55.0	0.08464	-0.2384
55.05	0.08221	-0.2386
55.1	0.08127	-0.2389
55.15	0.07994	-0.2391
55.2	0.07881	-0.2395
55.25	0.07646	-0.2397
55.3	0.07648	-0.2397
55.35	0.07617	-0.2397
55.4	0.07347	-0.2394
55.45	0.07156	-0.239
55.5	0.0723	-0.239
55.55	0.0721	-0.239
55.6	0.0719	-0.239
55.65	0.07234	-0.239
55.7	0.0723	-0.239
55.75	0.07257	-0.239
55.8	0.07254	-0.239
55.85	0.07239	-0.239
55.9	0.0724	-0.239
55.95	0.0724	-0.2391
56.0	0.07326	-0.2392
56.05	0.07425	-0.2396
56.1	0.07327	-0.24
56.15	0.0724	-0.2406
56.2	0.06938	-0.2411
56.25	0.067	-0.2418
56.3	0.06503	-0.2423
56.35	0.06329	-0.2426
56.4	0.06158	-0.2428
56.45	0.05963	-0.2432
56.5	0.05739	-0.2436
56.55	0.05576	-0.2439
56.6	0.05241	-0.2442
56.65	0.05064	-0.2446
56.7	0.05006	-0.2449
56.75	0.04941	-0.2451
56.8	0.04672	-0.2455
56.85	0.04639	-0.2457
56.9	0.0459	-0.246
56.95	0.04526	-0.2461
57.0	0.0446	-0.2463
57.05	0.04451	-0.2465
57.1	0.04428	-0.2467
57.15	0.04355	-0.2469
57.2	0.04338	-0.2472
57.25	0.04288	-0.2475
57.3	0.04253	-0.2477
57.35	0.04243	-0.2477
57.4	0.04228	-0.2477
57.45	0.04192	-0.2476
57.5	0.04167	-0.2472
57.55	0.04144	-0.247
57.6	0.04153	-0.247
57.65	0.04146	-0.247
57.7	0.04134	-0.247
57.75	0.04134	-0.247
57.8	0.0414	-0.247
57.85	0.04131	-0.247
57.9	0.04114	-0.247
57.95	0.04105	-0.2471
58.0	0.04111	-0.2471
58.05	0.04109	-0.2471
58.1	0.04115	-0.2474
58.15	0.04137	-0.2478
58.2	0.04103	-0.2484
58.25	0.0412	-0.2489
58.3	0.04117	-0.2492
58.35	0.04134	-0.2496
58.4	0.04124	-0.25
58.45	0.04179	-0.2503
58.5	0.04181	-0.2507
58.55	0.04301	-0.2513
58.6	0.04393	-0.2518
58.65	0.04391	-0.252
58.7	0.04445	-0.2523
58.75	0.04556	-0.2527
58.8	0.04672	-0.2531
58.85	0.04694	-0.2532
58.9	0.04742	-0.2534
58.95	0.04845	-0.2536
59.0	0.04887	-0.2538
59.05	0.05014	-0.2542
59.1	0.05138	-0.2546
59.15	0.05292	-0.2548
59.2	0.05426	-0.2552
59.25	0.05458	-0.2553
59.3	0.05515	-0.2554
59.35	0.05493	-0.2554
59.4	0.05611	-0.255
59.45	0.05746	-0.2547
59.5	0.05763	-0.2547
59.55	0.05733	-0.2547
59.6	0.05724	-0.2547
59.65	0.05763	-0.2547
59.7	0.05745	-0.2547
59.75	0.05751	-0.2547
59.8	0.05745	-0.2547
59.85	0.05717	-0.2547
59.9	0.0571	-0.2547
59.95	0.05711	-0.2547
60.0	0.05687	-0.2547
60.05	0.05663	-0.2547
60.1	0.05685	-0.2548
60.15	0.05716	-0.2548
60.2	0.05702	-0.2548
60.25	0.05708	-0.2548
60.3	0.05649	-0.2551
60.35	0.05554	-0.2553
60.4	0.05533	-0.2554
60.45	0.05571	-0.2554
60.5	0.05565	-0.2555
60.55	0.0563	-0.2557
60.6	0.05658	-0.2559
60.65	0.05727	-0.2563
60.7	0.05745	-0.2566
60.75	0.05801	-0.257
60.8	0.05814	-0.2572
60.85	0.05801	-0.2575
60.9	0.0587	-0.2579
60.95	0.05888	-0.2581
61.0	0.05894	-0.2582
61.05	0.05901	-0.2583
61.1	0.05954	-0.2586
61.15	0.05992	-0.2588
61.2	0.06003	-0.2591
61.25	0.06079	-0.2593
61.3	0.061	-0.2596
61.35	0.06183	-0.2598
61.4	0.06239	-0.26
61.45	0.06328	-0.2602
61.5	0.06329	-0.2603
61.55	0.06427	-0.2605
61.6	0.06569	-0.2608
61.65	0.0663	-0.261
61.7	0.06728	-0.2612
61.75	0.06824	-0.2613
61.8	0.069	-0.2614
61.85	0.06906	-0.2615
61.9	0.06897	-0.2615
61.95	0.07019	-0.2614
62.0	0.0755	-0.2607
62.05	0.07634	-0.2606
62.1	0.07587	-0.2606
62.15	0.07591	-0.2606
62.2	0.07576	-0.2606
62.25	0.0757	-0.2606
62.3	0.07559	-0.2606
62.35	0.07536	-0.2606
62.4	0.07545	-0.2606
62.45	0.07555	-0.2606
62.5	0.07527	-0.2606
62.55	0.07549	-0.2607
62.6	0.07574	-0.2607
62.65	0.07562	-0.2607
62.7	0.07471	-0.261
62.75	0.07137	-0.2614
62.8	0.07104	-0.2616
62.85	0.07236	-0.262
62.9	0.07443	-0.2622
62.95	0.07773	-0.2625
63.0	0.07988	-0.2628
63.05	0.08173	-0.263
63.1	0.08574	-0.2633
63.15	0.08771	-0.2636
63.2	0.08882	-0.2638
63.25	0.09016	-0.264
63.3	0.09189	-0.2642
63.35	0.09283	-0.2644
63.4	0.09384	-0.2646
63.45	0.09448	-0.2647
63.5	0.0961	-0.2649
63.55	0.09679	-0.2652
63.6	0.09651	-0.2652
63.65	0.09631	-0.2653
63.7	0.09602	-0.2653
63.75	0.09578	-0.2655
63.8	0.09557	-0.2657
63.85	0.09488	-0.2657
63.9	0.09442	-0.2659
63.95	0.09406	-0.2659
64.0	0.09381	-0.2661
64.05	0.09207	-0.2662
64.1	0.09151	-0.2663
64.15	0.09091	-0.2664
64.2	0.08958	-0.2667
64.25	0.08702	-0.2669
64.3	0.08575	-0.2671
64.35	0.08456	-0.2673
64.4	0.08434	-0.2673
64.45	0.0844	-0.2673
64.5	0.08398	-0.2671
64.55	0.0816	-0.2667
64.6	0.07939	-0.2666
64.65	0.07947	-0.2666
64.7	0.07904	-0.2666
64.75	0.07874	-0.2666
64.8	0.07863	-0.2666
64.85	0.07849	-0.2666
64.9	0.07848	-0.2666
64.95	0.07846	-0.2666
65.0	0.07861	-0.2666
65.05	0.07869	-0.2666
65.1	0.07922	-0.2669
65.15	0.08266	-0.2673
65.2	0.08223	-0.2674
65.25	0.07985	-0.268
65.3	0.07794	-0.2685
65.35	0.07713	-0.2689
65.4	0.07674	-0.2691
65.45	0.07657	-0.2693
65.5	0.07692	-0.2696
65.55	0.07745	-0.2697
65.6	0.07727	-0.2698
65.65	0.07825	-0.27
65.7	0.07924	-0.2702
65.75	0.08017	-0.2704
65.8	0.08202	-0.2707
65.85	0.08231	-0.2708
65.9	0.08292	-0.2709
65.95	0.08638	-0.2712
66.0	0.08751	-0.2714
66.05	0.08791	-0.2715
66.1	0.08932	-0.2716
66.15	0.09033	-0.2718
66.2	0.0923	-0.272
66.25	0.09427	-0.2722
66.3	0.09721	-0.2724
66.35	0.09792	-0.2724
66.4	0.09801	-0.2724
66.45	0.10097	-0.2722
66.5	0.1044	-0.2718
66.55	0.10434	-0.2717
66.6	0.10432	-0.2717
66.65	0.10361	-0.2717
66.7	0.10373	-0.2717
66.75	0.10362	-0.2717
66.8	0.10362	-0.2717
66.85	0.10342	-0.2717
66.9	0.10356	-0.2717
66.95	0.10342	-0.2718
67.0	0.10287	-0.2719
67.05	0.09825	-0.2723
67.1	0.09706	-0.2724
67.15	0.09695	-0.2725
67.2	0.09703	-0.2725
67.25	0.0974	-0.2725
67.3	0.0977	-0.2726
67.35	0.09787	-0.2727
67.4	0.09987	-0.2729
67.45	0.10178	-0.2735
67.5	0.10153	-0.274
67.55	0.10057	-0.2744
67.6	0.0993	-0.2746
67.65	0.09946	-0.2746
67.7	0.09915	-0.2747
67.75	0.09781	-0.2749
67.8	0.09746	-0.2749
67.85	0.09729	-0.2749
67.9	0.09729	-0.2749
67.95	0.09152	-0.2753
68.0	0.08788	-0.2758
68.05	0.0833	-0.2764
68.1	0.08002	-0.2767
68.15	0.07925	-0.2768
68.2	0.07919	-0.2768
68.25	0.07881	-0.2769
68.3	0.07819	-0.2769
68.35	0.07787	-0.2769
68.4	0.07787	-0.2769
68.45	0.07776	-0.2769
68.5	0.07785	-0.277
68.55	0.07755	-0.277
68.6	0.07739	-0.277
68.65	0.07697	-0.2767
68.7	0.07512	-0.2763
68.75	0.07507	-0.2763
68.8	0.07507	-0.2763
68.85	0.07495	-0.2763
68.9	0.07491	-0.2763
68.95	0.07515	-0.2763
69.0	0.0751	-0.2763
69.05	0.07512	-0.2763
69.1	0.07458	-0.2763
69.15	0.07466	-0.2763
69.2	0.07463	-0.2766
69.25	0.07535	-0.2769
69.3	0.07549	-0.277
69.35	0.07523	-0.2772
69.4	0.07452	-0.2776
69.45	0.07462	-0.2783
69.5	0.07588	-0.2785
69.55	0.07666	-0.2787
69.6	0.07796	-0.279
69.65	0.08345	-0.2795
69.7	0.08609	-0.28
69.75	0.08772	-0.2803
69.8	0.08908	-0.2806
69.85	0.08998	-0.2808
69.9	0.09055	-0.281
69.95	0.09088	-0.2811
70.0	0.09073	-0.2815
70.05	0.09007	-0.2818
70.1	0.08942	-0.282
70.15	0.08913	-0.2821
70.2	0.08839	-0.2821
70.25	0.08827	-0.2821
70.3	0.08829	-0.2821
70.35	0.08813	-0.2821
70.4	0.08142	-0.2816
70.45	0.08095	-0.2815
70.5	0.08067	-0.2815
70.55	0.08037	-0.2815
70.6	0.08046	-0.2815
70.65	0.08022	-0.2815
70.7	0.08014	-0.2815
70.75	0.08009	-0.2815
70.8	0.08008	-0.2815
70.85	0.08034	-0.2815
70.9	0.08125	-0.2817
70.95	0.08571	-0.2821
71.0	0.08646	-0.2823
71.05	0.08421	-0.2827
71.1	0.07945	-0.2833
71.15	0.06989	-0.2838
71.2	0.0654	-0.2844
71.25	0.06361	-0.2847
71.3	0.06232	-0.285
71.35	0.0603	-0.2852
71.4	0.05916	-0.2857
71.45	0.05859	-0.2858
71.5	0.0589	-0.2861
71.55	0.05878	-0.2864
71.6	0.05911	-0.2865
71.65	0.05894	-0.2866
71.7	0.0594	-0.2869
71.75	0.0609	-0.2872
71.8	0.06143	-0.2874
71.85	0.0616	-0.2874
71.9	0.06168	-0.2875
71.95	0.06267	-0.2878
72.0	0.06335	-0.288
72.05	0.06349	-0.2885
72.1	0.0634	-0.2888
72.15	0.06305	-0.289
72.2	0.06262	-0.2891
72.25	0.06204	-0.2894
72.3	0.06125	-0.2896
72.35	0.06091	-0.2896
72.4	0.05981	-0.2899
72.45	0.05934	-0.2901
72.5	0.05923	-0.2901
72.55	0.05911	-0.29
72.6	0.05684	-0.2896
72.65	0.05449	-0.2894
72.7	0.05452	-0.2894
72.75	0.05435	-0.2894
72.8	0.05467	-0.2894
72.85	0.05441	-0.2894
72.9	0.05449	-0.2894
72.95	0.05458	-0.2894
73.0	0.05452	-0.2894
73.05	0.05429	-0.2894
73.1	0.05524	-0.2896
73.15	0.05763	-0.2898
73.2	0.0573	-0.29
73.25	0.05629	-0.2903
73.3	0.05446	-0.2909
73.35	0.04808	-0.2917
73.4	0.04593	-0.2923
73.45	0.0451	-0.2925
73.5	0.04488	-0.2927
73.55	0.04402	-0.2933
73.6	0.04424	-0.294
73.65	0.04453	-0.2947
73.7	0.0442	-0.2951
73.75	0.04378	-0.2956
73.8	0.04373	-0.2958
73.85	0.04361	-0.296
73.9	0.04269	-0.2963
73.95	0.04205	-0.2965
74.0	0.04108	-0.2967
74.05	0.04001	-0.297
74.1	0.03946	-0.2972
74.15	0.03821	-0.2973
74.2	0.03674	-0.2978
74.25	0.03545	-0.2982
74.3	0.03448	-0.2987
74.35	0.03329	-0.2993
74.4	0.03282	-0.2998
74.45	0.03282	-0.3001
74.5	0.03238	-0.3002
74.55	0.03255	-0.3002
74.6	0.03268	-0.3002
74.65	0.03271	-0.3001
74.7	0.03249	-0.2998
74.75	0.03239	-0.2998
74.8	0.03241	-0.2998
74.85	0.03241	-0.2998
74.9	0.03258	-0.2998
74.95	0.03265	-0.2998
75.0	0.03273	-0.2998
75.05	0.03253	-0.2998
75.1	0.03308	-0.2998
75.15	0.03313	-0.2998
75.2	0.033	-0.3
75.25	0.03333	-0.3002
75.3	0.03284	-0.3004
75.35	0.03267	-0.301
75.4	0.03192	-0.3018
75.45	0.03133	-0.3026
75.5	0.03156	-0.3031
75.55	0.03114	-0.3036
75.6	0.0302	-0.3043
75.65	0.03008	-0.3052
75.7	0.03024	-0.3059
75.75	0.03004	-0.3065
75.8	0.03004	-0.307
75.85	0.03006	-0.3072
75.9	0.03027	-0.3075
75.95	0.03012	-0.3079
76.0	0.0305	-0.3084
76.05	0.03046	-0.3089
76.1	0.03075	-0.3092
76.15	0.03085	-0.3095
76.2	0.03105	-0.3098
76.25	0.03107	-0.31
76.3	0.03108	-0.3102
76.35	0.03117	-0.3103
76.4	0.03116	-0.3102
76.45	0.03113	-0.3099
76.5	0.03108	-0.3099
76.55	0.0312	-0.3099
76.6	0.03136	-0.3099
76.65	0.0314	-0.3099
76.7	0.03136	-0.3099
76.75	0.03104	-0.3099
76.8	0.03128	-0.3099
76.85	0.03102	-0.3099
76.9	0.03105	-0.3099
76.95	0.03122	-0.3103
77.0	0.03143	-0.3105
77.05	0.03142	-0.3109
77.1	0.03181	-0.3118
77.15	0.03256	-0.3126
77.2	0.03365	-0.3135
77.25	0.03564	-0.3143
77.3	0.03641	-0.3151
77.35	0.03638	-0.3157
77.4	0.03654	-0.3164
77.45	0.03612	-0.317
77.5	0.03671	-0.3176
77.55	0.03725	-0.3182
77.6	0.03798	-0.3187
77.65	0.03944	-0.3191
77.7	0.0403	-0.3194
77.75	0.04106	-0.3197
77.8	0.04184	-0.32
77.85	0.04213	-0.32
77.9	0.04263	-0.3198
77.95	0.04288	-0.3195
78.0	0.04298	-0.3195
78.05	0.04283	-0.3195
78.1	0.04291	-0.3195
78.15	0.04276	-0.3195
78.2	0.04276	-0.3195
78.25	0.04279	-0.3195
78.3	0.04305	-0.3195
78.35	0.04305	-0.3195
78.4	0.04291	-0.3196
78.45	0.04202	-0.32
78.5	0.04326	-0.3206
78.55	0.04333	-0.3217
78.6	0.04219	-0.3228
78.65	0.0432	-0.3239
78.7	0.04608	-0.3249
78.75	0.04913	-0.3259
78.8	0.04985	-0.3267
78.85	0.04933	-0.3272
78.9	0.04909	-0.3273
78.95	0.04892	-0.3274
79.0	0.04839	-0.3276
79.05	0.04753	-0.3277
79.1	0.04684	-0.328
79.15	0.04587	-0.3286
79.2	0.0455	-0.3291
79.25	0.04802	-0.3298
79.3	0.04836	-0.3302
79.35	0.04871	-0.3302
79.4	0.04849	-0.3302
79.45	0.04915	-0.3301
79.5	0.05011	-0.3297
79.55	0.04997	-0.3297
79.6	0.04976	-0.3297
79.65	0.05019	-0.3297
79.7	0.0502	-0.3297
79.75	0.05011	-0.3297
79.8	0.05019	-0.3297
79.85	0.05022	-0.3297
79.9	0.05011	-0.3297
79.95	0.05029	-0.3297
80.0	0.04993	-0.3298
80.05	0.04887	-0.3302
80.1	0.04994	-0.3305
80.15	0.0519	-0.3314
80.2	0.05199	-0.3323
80.25	0.04959	-0.3329
80.3	0.04752	-0.3337
80.35	0.04726	-0.3347
80.4	0.04968	-0.336
80.45	0.05122	-0.337
80.5	0.04985	-0.3377
80.55	0.04814	-0.3384
80.6	0.04626	-0.339
80.65	0.04434	-0.3394
80.7	0.04382	-0.3398
80.75	0.0442	-0.3403
80.8	0.04521	-0.3408
80.85	0.04579	-0.3409
80.9	0.0457	-0.3409
80.95	0.04564	-0.3408
81.0	0.04712	-0.3401
81.05	0.04732	-0.3401
81.1	0.0472	-0.3401
81.15	0.04753	-0.3401
81.2	0.04762	-0.3401
81.25	0.0475	-0.3401
81.3	0.04738	-0.3401
81.35	0.04745	-0.3401
81.4	0.04741	-0.3404
81.45	0.04674	-0.3411
81.5	0.04747	-0.3415
81.55	0.04741	-0.3415
81.6	0.04752	-0.3415
81.65	0.04745	-0.3415
81.7	0.04741	-0.3415
81.75	0.04755	-0.3415
81.8	0.04736	-0.3415
81.85	0.04753	-0.3415
81.9	0.04791	-0.3412
81.95	0.04755	-0.3411
82.0	0.04761	-0.3411
82.05	0.04765	-0.3411
82.1	0.04744	-0.341
82.15	0.04761	-0.3409
82.2	0.04791	-0.3403
82.25	0.04727	-0.3399
82.3	0.04723	-0.3397
82.35	0.04637	-0.3394
82.4	0.04547	-0.3388
82.45	0.04402	-0.3382
82.5	0.04459	-0.3379
82.55	0.04477	-0.3376
82.6	0.04597	-0.3371
82.65	0.04759	-0.3368
82.7	0.04846	-0.3366
82.75	0.04967	-0.3361
82.8	0.05145	-0.3351
82.85	0.04755	-0.3339
82.9	0.04703	-0.3327
82.95	0.04956	-0.3316
83.0	0.05128	-0.3306
83.05	0.0515	-0.3299
83.1	0.05023	-0.3294
83.15	0.04767	-0.3286
83.2	0.04515	-0.3273
83.25	0.0481	-0.3262
83.3	0.04929	-0.3252
83.35	0.04889	-0.3244
83.4	0.04834	-0.3242
83.45	0.04709	-0.324
83.5	0.04683	-0.3238
83.55	0.04721	-0.3238
83.6	0.04715	-0.3238
83.65	0.04665	-0.3239
83.7	0.04701	-0.3239
83.75	0.04707	-0.3239
83.8	0.04683	-0.3239
83.85	0.04698	-0.3239
83.9	0.0468	-0.3239
83.95	0.04713	-0.3239
84.0	0.04694	-0.3239
84.05	0.04707	-0.3239
84.1	0.04715	-0.3238
84.15	0.04665	-0.3237
84.2	0.04506	-0.3232
84.25	0.04143	-0.3222
84.3	0.04208	-0.3209
84.35	0.04262	-0.3199
84.4	0.04221	-0.3188
84.45	0.03874	-0.318
84.5	0.03723	-0.3174
84.55	0.03595	-0.3164
84.6	0.03543	-0.3151
84.65	0.03535	-0.3141
84.7	0.03456	-0.3132
84.75	0.0334	-0.3123
84.8	0.03308	-0.3118
84.85	0.03195	-0.3114
84.9	0.03214	-0.311
84.95	0.03174	-0.3108
85.0	0.03145	-0.3102
85.05	0.03111	-0.3096
85.1	0.03075	-0.3086
85.15	0.03047	-0.308
85.2	0.03041	-0.3079
85.25	0.03072	-0.3079
85.3	0.03008	-0.308
85.35	0.03018	-0.308
85.4	0.03027	-0.308
85.45	0.03053	-0.308
85.5	0.03036	-0.308
85.55	0.03069	-0.308
85.6	0.03055	-0.308
85.65	0.03036	-0.3079
85.7	0.0304	-0.3079
85.75	0.03015	-0.3077
85.8	0.02986	-0.307
85.85	0.02986	-0.3059
85.9	0.02998	-0.3055
85.95	0.02982	-0.3054
86.0	0.03006	-0.3053
86.05	0.02983	-0.3049
86.1	0.03008	-0.3043
86.15	0.02995	-0.3038
86.2	0.03021	-0.3033
86.25	0.03021	-0.3027
86.3	0.03102	-0.3021
86.35	0.03169	-0.3015
86.4	0.032	-0.301
86.45	0.03276	-0.3002
86.5	0.03302	-0.2993
86.55	0.03365	-0.2987
86.6	0.03328	-0.2986
86.65	0.03333	-0.2985
86.7	0.03365	-0.2985
86.75	0.03391	-0.2984
86.8	0.03413	-0.2981
86.85	0.03499	-0.2972
86.9	0.03743	-0.2961
86.95	0.03896	-0.2956
87.0	0.04036	-0.2953
87.05	0.04126	-0.295
87.1	0.0423	-0.2947
87.15	0.04332	-0.2944
87.2	0.04335	-0.2944
87.25	0.04366	-0.2944
87.3	0.04364	-0.2946
87.35	0.04388	-0.2948
87.4	0.04385	-0.2948
87.45	0.04375	-0.2948
87.5	0.04364	-0.2948
87.55	0.04373	-0.2948
87.6	0.04289	-0.2947
87.65	0.04262	-0.2947
87.7	0.04254	-0.2947
87.75	0.04344	-0.2945
87.8	0.04381	-0.2943
87.85	0.04414	-0.2941
87.9	0.04514	-0.2934
87.95	0.04515	-0.292
88.0	0.04616	-0.29
88.05	0.04645	-0.2899
88.1	0.0464	-0.2899
88.15	0.04662	-0.2899
88.2	0.04677	-0.2899
88.25	0.04752	-0.2897
88.3	0.04858	-0.2893
88.35	0.05042	-0.2889
88.4	0.05463	-0.2886
88.45	0.05704	-0.2881
88.5	0.05971	-0.2876
88.55	0.06154	-0.2871
88.6	0.06325	-0.2868
88.65	0.0638	-0.2865
88.7	0.0639	-0.2856
88.75	0.06145	-0.2844
88.8	0.05952	-0.2841
88.85	0.05977	-0.2841
88.9	0.05952	-0.284
88.95	0.05957	-0.2839
89.0	0.05931	-0.2838
89.05	0.05904	-0.2836
89.1	0.05888	-0.2832
89.15	0.05888	-0.2831
89.2	0.0591	-0.283
89.25	0.06006	-0.2827
89.3	0.06227	-0.2821
89.35	0.06561	-0.2814
89.4	0.07027	-0.2811
89.45	0.0715	-0.281
89.5	0.07478	-0.2807
89.55	0.07626	-0.2806
89.6	0.07521	-0.2808
89.65	0.07436	-0.2809
89.7	0.07433	-0.2809
89.75	0.07434	-0.2809
89.8	0.07437	-0.281
89.85	0.07381	-0.2809
89.9	0.07301	-0.2809
89.95	0.07318	-0.2809
90.0	0.07416	-0.2807
90.05	0.07574	-0.2806
90.1	0.0773	-0.2804
90.15	0.07976	-0.2802
90.2	0.08374	-0.2798
90.25	0.0872	-0.2792
90.3	0.08846	-0.2783
90.35	0.07939	-0.2771
90.4	0.07257	-0.2757
90.45	0.07141	-0.2743
90.5	0.07372	-0.2736
90.55	0.07442	-0.2735
90.6	0.07526	-0.2733
90.65	0.07584	-0.2732
90.7	0.07651	-0.273
90.75	0.08101	-0.2726
90.8	0.08261	-0.2723
90.85	0.08464	-0.2719
90.9	0.09146	-0.2713
90.95	0.0925	-0.2707
91.0	0.09274	-0.2706
91.05	0.09264	-0.2706
91.1	0.09279	-0.2705
91.15	0.09258	-0.2704
91.2	0.09157	-0.27
91.25	0.08701	-0.2688
91.3	0.07217	-0.2678
91.35	0.07086	-0.2675
91.4	0.07118	-0.2675
91.45	0.07101	-0.2675
91.5	0.07094	-0.2675
91.55	0.07091	-0.2676
91.6	0.07344	-0.2682
91.65	0.07346	-0.2682
91.7	0.07346	-0.2682
91.75	0.0737	-0.2682
91.8	0.07391	-0.2682
91.85	0.07335	-0.2682
91.9	0.07416	-0.2682
91.95	0.07547	-0.2681
92.0	0.0753	-0.268
92.05	0.0721	-0.2677
92.1	0.07159	-0.2675
92.15	0.07014	-0.2672
92.2	0.06729	-0.2665
92.25	0.06413	-0.266
92.3	0.06396	-0.2654
92.35	0.0648	-0.2648
92.4	0.06561	-0.2641
92.45	0.06908	-0.2635
92.5	0.07025	-0.2631
92.55	0.07147	-0.2626
92.6	0.07249	-0.2622
92.65	0.07275	-0.2617
92.7	0.07143	-0.261
92.75	0.06911	-0.2605
92.8	0.06656	-0.26
92.85	0.06168	-0.2596
92.9	0.05881	-0.2592
92.95	0.05565	-0.2587
93.0	0.05318	-0.2581
93.05	0.04738	-0.2575
93.1	0.04558	-0.2569
93.15	0.04446	-0.2566
93.2	0.04346	-0.2562
93.25	0.04176	-0.2558
93.3	0.04135	-0.2555
93.35	0.04099	-0.2551
93.4	0.04054	-0.2548
93.45	0.03964	-0.2545
93.5	0.03963	-0.2541
93.55	0.039	-0.2538
93.6	0.03873	-0.2538
93.65	0.03867	-0.2535
93.7	0.03827	-0.2533
93.75	0.03824	-0.2533
93.8	0.03876	-0.2536
93.85	0.03883	-0.2538
93.9	0.0388	-0.2538
93.95	0.03879	-0.2538
94.0	0.03911	-0.2538
94.05	0.03908	-0.2539
94.1	0.03886	-0.2539
94.15	0.03879	-0.2538
94.2	0.03854	-0.2538
94.25	0.03818	-0.2534
94.3	0.03789	-0.253
94.35	0.03725	-0.2523
94.4	0.03532	-0.2515
94.45	0.03488	-0.2512
94.5	0.03445	-0.2508
94.55	0.03369	-0.2501
94.6	0.03154	-0.2492
94.65	0.03081	-0.2482
94.7	0.03024	-0.2473
94.75	0.03041	-0.2468
94.8	0.03096	-0.2466
94.85	0.03102	-0.2462
94.9	0.03128	-0.2456
94.95	0.03198	-0.2449
95.0	0.03419	-0.2441
95.05	0.03516	-0.2437
95.1	0.03584	-0.2433
95.15	0.03653	-0.243
95.2	0.03964	-0.2425
95.25	0.04134	-0.2421
95.3	0.04344	-0.2417
95.35	0.0453	-0.2413
95.4	0.05112	-0.2408
95.45	0.0545	-0.2403
95.5	0.05708	-0.24
95.55	0.06012	-0.2395
95.6	0.06726	-0.2391
95.65	0.07062	-0.2388
95.7	0.07356	-0.2384
95.75	0.07542	-0.2381
95.8	0.07886	-0.2379
95.85	0.0807	-0.2376
95.9	0.0827	-0.2373
95.95	0.08485	-0.2369
96.0	0.08786	-0.2366
96.05	0.08778	-0.2365
96.1	0.08769	-0.2366
96.15	0.08804	-0.2366
96.2	0.08731	-0.2369
96.25	0.08714	-0.2369
96.3	0.08717	-0.2369
96.35	0.08696	-0.2369
96.4	0.08595	-0.2372
96.45	0.08586	-0.2375
96.5	0.08554	-0.2375
96.55	0.08572	-0.2375
96.6	0.08475	-0.2373
96.65	0.08411	-0.2371
96.7	0.08788	-0.2368
96.75	0.09015	-0.2364
96.8	0.09254	-0.2358
96.85	0.09441	-0.2352
96.9	0.09801	-0.2346
96.95	0.10011	-0.234
97.0	0.10197	-0.2335
97.05	0.10236	-0.2335
97.1	0.10464	-0.2332
97.15	0.10736	-0.2327
97.2	0.10989	-0.2323
97.25	0.11229	-0.2319
97.3	0.11986	-0.2314
97.35	0.12337	-0.2311
97.4	0.12624	-0.2308
97.45	0.13403	-0.2304
97.5	0.13876	-0.2301
97.55	0.14395	-0.2297
97.6	0.15115	-0.2293
97.65	0.16116	-0.229
97.7	0.16452	-0.2288
97.75	0.16925	-0.2286
97.8	0.17563	-0.2283
97.85	0.18776	-0.2281
97.9	0.19226	-0.2279
97.95	0.19635	-0.2278
98.0	0.20392	-0.2277
98.05	0.20836	-0.2275
98.1	0.21631	-0.2272
98.15	0.22421	-0.2271
98.2	0.23685	-0.2269
98.25	0.24361	-0.2266
98.3	0.25049	-0.2264
98.35	0.27295	-0.2262
98.4	0.2867	-0.2258
98.45	0.29778	-0.2255
98.5	0.32928	-0.2251
98.55	0.33842	-0.2248
98.6	0.34782	-0.2246
98.65	0.35768	-0.2243
98.7	0.38879	-0.2239
98.75	0.40614	-0.2234
98.8	0.41728	-0.223
98.85	0.42847	-0.2228
98.9	0.43944	-0.2225
98.95	0.44661	-0.2222
99.0	0.45592	-0.2219
99.05	0.45946	-0.2216
99.1	0.46178	-0.2214
99.15	0.46248	-0.2213
99.2	0.46234	-0.2213
99.25	0.46202	-0.2214
99.3	0.45937	-0.2217
99.35	0.45232	-0.222
99.4	0.45248	-0.222
99.45	0.45337	-0.222
99.5	0.45442	-0.222
99.55	0.45332	-0.2222
99.6	0.45255	-0.2224
99.65	0.45244	-0.2224
99.7	0.44812	-0.2223
99.75	0.44791	-0.2221
99.8	0.45406	-0.2217
99.85	0.46291	-0.2214
99.9	0.46547	-0.2211
99.95	0.46864	-0.2205
100.0	0.47023	-0.2194
100.05	0.46948	-0.2192
100.1	0.46858	-0.2191
100.15	0.46817	-0.2188
100.2	0.46469	-0.2184
100.25	0.46231	-0.2179
100.3	0.45889	-0.2169
100.35	0.45869	-0.2159
100.4	0.46255	-0.2151
100.45	0.4691	-0.2143
100.5	0.47264	-0.2141
100.55	0.47255	-0.214
100.6	0.47433	-0.2139
100.65	0.47652	-0.2136
100.7	0.48018	-0.2135
100.75	0.48529	-0.2131
100.8	0.49197	-0.2127
100.85	0.50697	-0.2122
100.9	0.52473	-0.2115
100.95	0.54855	-0.2106
101.0	0.58534	-0.2099
101.05	0.59834	-0.2095
101.1	0.61076	-0.2092
101.15	0.62068	-0.209
101.2	0.63158	-0.2088
101.25	0.63896	-0.2086
101.3	0.64116	-0.2085
101.35	0.64684	-0.2085
101.4	0.64886	-0.2084
101.45	0.64998	-0.2083
101.5	0.6552	-0.2083
101.55	0.67139	-0.2079
101.6	0.69603	-0.2074
101.65	0.73041	-0.2071
101.7	0.74889	-0.2067
101.75	0.77029	-0.2062
101.8	0.81996	-0.2057
101.85	0.855	-0.205
101.9	0.90475	-0.2041
101.95	0.96098	-0.2036
102.0	0.9604	-0.2036
102.05	0.95943	-0.2036
102.1	0.95763	-0.2036
102.15	0.95425	-0.2038
102.2	0.94476	-0.204
102.25	0.9438	-0.204
102.3	0.94319	-0.204
102.35	0.94342	-0.204
102.4	0.94443	-0.204
102.45	0.94327	-0.204
102.5	0.94221	-0.204
102.55	0.9388	-0.2039
102.6	0.93045	-0.2039
102.65	0.93837	-0.2037
102.7	0.96153	-0.2032
102.75	1.05327	-0.2023
102.8	1.08485	-0.2017
102.85	1.09113	-0.2016
102.9	1.11365	-0.2014
102.95	1.14827	-0.2007
103.0	1.18817	-0.1998
103.05	1.26921	-0.1986
103.1	1.28868	-0.1977
103.15	1.29305	-0.1975
103.2	1.30449	-0.1971
103.25	1.30591	-0.1969
103.3	1.30595	-0.1969
103.35	1.31035	-0.1968
103.4	1.3123	-0.1966
103.45	1.31639	-0.1961
103.5	1.31969	-0.1956
103.55	1.31892	-0.1952
103.6	1.3194	-0.1948
103.65	1.31718	-0.1943
103.7	1.31473	-0.1939
103.75	1.30901	-0.1936
103.8	1.30717	-0.1932
103.85	1.30707	-0.1929
103.9	1.30095	-0.1927
103.95	1.29807	-0.1925
104.0	1.29567	-0.1923
104.05	1.29097	-0.1921
104.1	1.28598	-0.1918
104.15	1.27977	-0.1916
104.2	1.27043	-0.1914
104.25	1.26747	-0.191
104.3	1.26515	-0.1907
104.35	1.26199	-0.1905
104.4	1.26057	-0.1902
104.45	1.25964	-0.19
104.5	1.25873	-0.1899
104.55	1.25887	-0.1898
104.6	1.25604	-0.1896
104.65	1.24187	-0.1892
104.7	1.23741	-0.1888
104.75	1.23135	-0.1885
104.8	1.21588	-0.1882
104.85	1.20959	-0.188
104.9	1.20148	-0.1876
104.95	1.18716	-0.1873
105.0	1.18373	-0.1872
105.05	1.17709	-0.187
105.1	1.1635	-0.1867
105.15	1.15915	-0.1866
105.2	1.15601	-0.1864
105.25	1.14764	-0.1862
105.3	1.14159	-0.1859
105.35	1.136	-0.1857
105.4	1.1319	-0.1856
105.45	1.13173	-0.1856
105.5	1.13016	-0.1857
105.55	1.1295	-0.1862
105.6	1.13016	-0.1863
105.65	1.13087	-0.1863
105.7	1.13095	-0.1863
105.75	1.13107	-0.1863
105.8	1.13091	-0.1863
105.85	1.12363	-0.1865
105.9	1.12544	-0.1865
105.95	1.13394	-0.1863
106.0	1.15211	-0.1863
106.05	1.15324	-0.1863
106.1	1.15366	-0.1862
106.15	1.1524	-0.1862
106.2	1.15306	-0.1861
106.25	1.14821	-0.1858
106.3	1.13049	-0.1855
106.35	1.12076	-0.185
106.4	1.11226	-0.1845
106.45	1.09416	-0.184
106.5	1.09018	-0.1837
106.55	1.08362	-0.1834
106.6	1.06578	-0.183
106.65	1.05342	-0.1824
106.7	1.04416	-0.1819
106.75	1.03558	-0.1815
106.8	1.03214	-0.1813
106.85	1.02972	-0.181
106.9	1.02649	-0.1807
106.95	1.01437	-0.1803
107.0	1.00934	-0.18
107.05	1.00697	-0.1799
107.1	1.00101	-0.1797
107.15	0.99731	-0.1795
107.2	0.98938	-0.1791
107.25	0.96722	-0.1784
107.3	0.96144	-0.1778
107.35	0.957	-0.1775
107.4	0.95213	-0.1774
107.45	0.95045	-0.1773
107.5	0.94481	-0.177
107.55	0.92563	-0.1765
107.6	0.91913	-0.1761
107.65	0.91527	-0.1758
107.7	0.9052	-0.1755
107.75	0.89922	-0.175
107.8	0.89589	-0.1746
107.85	0.89256	-0.1744
107.9	0.88791	-0.1742
107.95	0.88446	-0.174
108.0	0.88126	-0.1738
108.05	0.86972	-0.1735
108.1	0.86053	-0.1731
108.15	0.85248	-0.1727
108.2	0.84367	-0.1724
108.25	0.84035	-0.1722
108.3	0.83798	-0.172
108.35	0.82993	-0.1716
108.4	0.82436	-0.1711
108.45	0.81912	-0.1709
108.5	0.81256	-0.1707
108.55	0.80821	-0.1705
108.6	0.80438	-0.1703
108.65	0.79486	-0.17
108.7	0.7888	-0.1696
108.75	0.78326	-0.1693
108.8	0.77107	-0.169
108.85	0.76595	-0.1687
108.9	0.76036	-0.1684
108.95	0.74852	-0.1681
109.0	0.74641	-0.1679
109.05	0.74464	-0.1678
109.1	0.73959	-0.1677
109.15	0.73592	-0.1676
109.2	0.73264	-0.1674
109.25	0.72157	-0.1672
109.3	0.7128	-0.1669
109.35	0.70442	-0.1666
109.4	0.68942	-0.1663
109.45	0.68353	-0.166
109.5	0.67555	-0.1656
109.55	0.65733	-0.1651
109.6	0.6499	-0.1647
109.65	0.6433	-0.1646
109.7	0.63136	-0.1644
109.75	0.62195	-0.1641
109.8	0.61961	-0.1641
109.85	0.61658	-0.1641
109.9	0.61674	-0.1641
109.95	0.61844	-0.1642
110.0	0.61856	-0.1642
110.05	0.61824	-0.1642
110.1	0.6187	-0.1642
110.15	0.61853	-0.1642
110.2	0.6161	-0.1643
110.25	0.61603	-0.1643
110.3	0.61722	-0.1643
110.35	0.62233	-0.1643
110.4	0.62653	-0.1643
110.45	0.62592	-0.1642
110.5	0.61874	-0.1641
110.55	0.60973	-0.1638
110.6	0.59465	-0.1632
110.65	0.55524	-0.1623
110.7	0.53934	-0.1616
110.75	0.52414	-0.1612
110.8	0.51218	-0.1611
110.85	0.50647	-0.1609
110.9	0.49452	-0.1606
110.95	0.47856	-0.1601
111.0	0.43843	-0.1596
111.05	0.41928	-0.1591
111.1	0.40399	-0.1586
111.15	0.38498	-0.1583
111.2	0.37935	-0.1581
111.25	0.37224	-0.1579
111.3	0.33978	-0.1574
111.35	0.31857	-0.1566
111.4	0.30646	-0.1561
111.45	0.29796	-0.156
111.5	0.2941	-0.1558
111.55	0.29088	-0.1557
111.6	0.28806	-0.1556
111.65	0.28122	-0.1555
111.7	0.27666	-0.1554
111.75	0.2731	-0.1553
111.8	0.26089	-0.1551
111.85	0.25002	-0.1548
111.9	0.23862	-0.1543
111.95	0.22691	-0.1539
112.0	0.20215	-0.1533
112.05	0.18939	-0.1528
112.1	0.17923	-0.1523
112.15	0.16592	-0.1519
112.2	0.16154	-0.1516
112.25	0.15909	-0.1514
112.3	0.15578	-0.1511
112.35	0.14427	-0.1507
112.4	0.13992	-0.1504
112.45	0.13567	-0.1501
112.5	0.12987	-0.1499
112.55	0.12845	-0.1498
112.6	0.12698	-0.1497
112.65	0.12468	-0.1494
112.7	0.11937	-0.1492
112.75	0.11688	-0.149
112.8	0.11491	-0.1488
112.85	0.11409	-0.1488
112.9	0.11349	-0.1487
112.95	0.11285	-0.1486
113.0	0.11165	-0.1485
113.05	0.1111	-0.1485
113.1	0.11081	-0.1485
113.15	0.11055	-0.1485
113.2	0.11015	-0.1486
113.25	0.11018	-0.1487
113.3	0.11031	-0.1487
113.35	0.11	-0.1487
113.4	0.10973	-0.1487
113.45	0.11002	-0.1487
113.5	0.11031	-0.1487
113.55	0.1107	-0.1487
113.6	0.11145	-0.1487
113.65	0.11192	-0.1487
113.7	0.11182	-0.1486
113.75	0.11154	-0.1486
113.8	0.11145	-0.1486
113.85	0.11047	-0.1485
113.9	0.10883	-0.1484
113.95	0.10738	-0.1482
114.0	0.09853	-0.1478
114.05	0.09096	-0.1468
114.1	0.08426	-0.1457
114.15	0.07901	-0.145
114.2	0.07631	-0.1448
114.25	0.07487	-0.1445
114.3	0.07309	-0.1441
114.35	0.07109	-0.1436
114.4	0.06879	-0.1433
114.45	0.06863	-0.1432
114.5	0.06851	-0.1432
114.55	0.06854	-0.1431
114.6	0.0634	-0.1426
114.65	0.05563	-0.141
114.7	0.05489	-0.1405
114.75	0.05478	-0.1405
114.8	0.05484	-0.1405
114.85	0.05486	-0.1405
114.9	0.05495	-0.1405
114.95	0.05467	-0.1405
115.0	0.0544	-0.1405
115.05	0.05339	-0.1403
115.1	0.05241	-0.1401
115.15	0.05162	-0.1399
115.2	0.05119	-0.1399
115.25	0.05133	-0.1398
115.3	0.05121	-0.1398
115.35	0.05077	-0.1398
115.4	0.04912	-0.1396
115.45	0.04784	-0.1392
115.5	0.0461	-0.1389
115.55	0.04347	-0.1385
115.6	0.04221	-0.1381
115.65	0.04164	-0.1378
115.7	0.04085	-0.1375
115.75	0.03906	-0.137
115.8	0.0383	-0.1366
115.85	0.03781	-0.1365
115.9	0.03731	-0.1362
115.95	0.03333	-0.1352
116.0	0.03246	-0.1346
116.05	0.03209	-0.1345
116.1	0.03244	-0.1345
116.15	0.0321	-0.1345
116.2	0.0318	-0.1344
116.25	0.03145	-0.1342
116.3	0.03107	-0.134
116.35	0.03116	-0.1339
116.4	0.03085	-0.1336
116.45	0.03036	-0.1334
116.5	0.03011	-0.133
116.55	0.02979	-0.1326
116.6	0.02956	-0.1321
116.65	0.02916	-0.1315
116.7	0.02943	-0.1309
116.75	0.02962	-0.1303
116.8	0.02995	-0.1299
116.85	0.0296	-0.1297
116.9	0.03003	-0.1296
116.95	0.02975	-0.1296
117.0	0.02972	-0.1296
117.05	0.0295	-0.13
117.1	0.02966	-0.1305
117.15	0.02983	-0.1305
117.2	0.02969	-0.1305
117.25	0.02968	-0.1305
117.3	0.02966	-0.1305
117.35	0.02962	-0.1305
117.4	0.02985	-0.1305
117.45	0.02979	-0.1304
117.5	0.02972	-0.1303
117.55	0.02985	-0.1301
117.6	0.02986	-0.1298
117.65	0.03001	-0.1297
117.7	0.03015	-0.1296
117.75	0.03008	-0.1294
117.8	0.03003	-0.129
117.85	0.03189	-0.1276
117.9	0.03456	-0.1255
117.95	0.03787	-0.1238
118.0	0.03903	-0.1233
118.05	0.03955	-0.1231
118.1	0.04074	-0.1228
118.15	0.04303	-0.1221
118.2	0.04622	-0.121
118.25	0.0506	-0.1202
118.3	0.05145	-0.1196
118.35	0.05206	-0.1184
118.4	0.05128	-0.1171
118.45	0.04984	-0.1165
118.5	0.04948	-0.1158
118.55	0.04907	-0.1149
118.6	0.0491	-0.1142
118.65	0.04927	-0.1136
118.7	0.04971	-0.1131
118.75	0.05011	-0.1128
118.8	0.05031	-0.1126
118.85	0.0517	-0.1121
118.9	0.0524	-0.1118
118.95	0.05244	-0.1117
119.0	0.05237	-0.1117
119.05	0.05119	-0.112
119.1	0.0506	-0.1125
119.15	0.0506	-0.1125
119.2	0.0507	-0.1125
119.25	0.05042	-0.1125
119.3	0.0506	-0.1125
119.35	0.05089	-0.1125
119.4	0.05069	-0.1125
119.45	0.05014	-0.1126
119.5	0.05019	-0.1126
119.55	0.05038	-0.1126
119.6	0.05052	-0.1125
119.65	0.05179	-0.1121
119.7	0.0531	-0.1114
119.75	0.0565	-0.1101
119.8	0.06136	-0.1087
119.85	0.06491	-0.1076
119.9	0.06422	-0.1068
119.95	0.06287	-0.1063
120.0	0.06085	-0.1057
120.05	0.05588	-0.105
120.1	0.05357	-0.1042
120.15	0.05156	-0.1034
120.2	0.05022	-0.1027
120.25	0.04913	-0.1019
120.3	0.04926	-0.1013
120.35	0.04959	-0.1008
120.4	0.05038	-0.1001
120.45	0.0522	-0.0995
120.5	0.05324	-0.0989
120.55	0.0535	-0.0986
120.6	0.05417	-0.0981
120.65	0.05455	-0.0973
120.7	0.05325	-0.0967
120.75	0.05232	-0.0963
120.8	0.05133	-0.0959
120.85	0.04692	-0.0952
120.9	0.04466	-0.0946
120.95	0.04315	-0.0941
121.0	0.04214	-0.0939
121.05	0.04218	-0.0939
121.1	0.04202	-0.094
121.15	0.04018	-0.0946
121.2	0.03873	-0.0948
121.25	0.03835	-0.0948
121.3	0.03839	-0.0948
121.35	0.03819	-0.0948
121.4	0.03848	-0.0948
121.45	0.03809	-0.0947
121.5	0.03864	-0.0945
121.55	0.04102	-0.094
121.6	0.04062	-0.0937
121.65	0.03941	-0.0926
121.7	0.03903	-0.0917
121.75	0.03879	-0.0909
121.8	0.03923	-0.0902
121.85	0.03963	-0.0893
121.9	0.03989	-0.0884
121.95	0.03915	-0.0875
122.0	0.03645	-0.0866
122.05	0.03517	-0.0857
122.1	0.03406	-0.0849
122.15	0.03281	-0.0839
122.2	0.03169	-0.0831
122.25	0.03209	-0.0825
122.3	0.03162	-0.0817
122.35	0.03162	-0.0808
122.4	0.0314	-0.0799
122.45	0.03098	-0.0791
122.5	0.03062	-0.0785
122.55	0.03035	-0.078
122.6	0.03036	-0.0776
122.65	0.03001	-0.0773
122.7	0.02989	-0.0769
122.75	0.02988	-0.0764
122.8	0.02994	-0.0758
122.85	0.0295	-0.075
122.9	0.02943	-0.0746
122.95	0.02914	-0.0746
123.0	0.02922	-0.0756
123.05	0.02934	-0.0756
123.1	0.0295	-0.0756
123.15	0.02927	-0.0756
123.2	0.02921	-0.0756
123.25	0.02902	-0.0756
123.3	0.02925	-0.0755
123.35	0.02922	-0.0754
123.4	0.02917	-0.0749
123.45	0.0291	-0.0745
123.5	0.02916	-0.074
123.55	0.02902	-0.0732
123.6	0.02901	-0.0721
123.65	0.02901	-0.0712
123.7	0.02925	-0.0704
123.75	0.02934	-0.0698
123.8	0.02937	-0.0694
123.85	0.02933	-0.0688
123.9	0.02963	-0.0679
123.95	0.03006	-0.0668
124.0	0.03033	-0.0655
124.05	0.03079	-0.0638
124.1	0.03093	-0.063
124.15	0.03087	-0.0621
124.2	0.03133	-0.0609
124.25	0.03197	-0.0596
124.3	0.0325	-0.0587
124.35	0.03281	-0.0582
124.4	0.03293	-0.0578
124.45	0.03284	-0.0571
124.5	0.03261	-0.0564
124.55	0.03249	-0.0556
124.6	0.03259	-0.0553
124.65	0.03262	-0.0553
124.7	0.0322	-0.0557
124.75	0.03238	-0.0561
124.8	0.03253	-0.0561
124.85	0.03261	-0.0561
124.9	0.03261	-0.0561
124.95	0.03244	-0.0561
125.0	0.03239	-0.0561
125.05	0.03268	-0.0561
125.1	0.03267	-0.056
125.15	0.03268	-0.0556
125.2	0.03255	-0.0549
125.25	0.03319	-0.0538
125.3	0.03383	-0.0527
125.35	0.03438	-0.0517
125.4	0.03416	-0.0511
125.45	0.03378	-0.0503
125.5	0.03307	-0.049
125.55	0.0334	-0.0477
125.6	0.03435	-0.0468
125.65	0.034	-0.0464
125.7	0.03409	-0.0458
125.75	0.03363	-0.045
125.8	0.03334	-0.0441
125.85	0.0331	-0.0432
125.9	0.03313	-0.0429
125.95	0.03281	-0.0427
126.0	0.03326	-0.0422
126.05	0.03337	-0.0418
126.1	0.03331	-0.0412
126.15	0.03378	-0.0405
126.2	0.03343	-0.0399
126.25	0.03337	-0.0396
126.3	0.03296	-0.0389
126.35	0.0325	-0.0385
126.4	0.03232	-0.0386
126.45	0.03212	-0.0389
126.5	0.03192	-0.0389
126.55	0.03197	-0.0389
126.6	0.03223	-0.0389
126.65	0.03192	-0.0389
126.7	0.03204	-0.0389
126.75	0.0321	-0.0388
126.8	0.0325	-0.0383
126.85	0.03209	-0.0377
126.9	0.03218	-0.037
126.95	0.03276	-0.0363
127.0	0.03256	-0.0354
127.05	0.03242	-0.0343
127.1	0.0316	-0.0333
127.15	0.03136	-0.0322
127.2	0.03119	-0.0309
127.25	0.03125	-0.0301
127.3	0.03117	-0.0297
127.35	0.03102	-0.0291
127.4	0.03058	-0.0286
127.45	0.03012	-0.0278
127.5	0.03023	-0.0271
127.55	0.03043	-0.0265
127.6	0.0302	-0.0257
127.65	0.0302	-0.0246
127.7	0.0298	-0.0237
127.75	0.02989	-0.0231
127.8	0.02992	-0.0226
127.85	0.03004	-0.0226
127.9	0.02989	-0.0227
127.95	0.02986	-0.0228
128.0	0.03023	-0.0228
128.05	0.02997	-0.0228
128.1	0.03012	-0.0228
128.15	0.03032	-0.0228
128.2	0.03036	-0.0228
128.25	0.02989	-0.0228
128.3	0.02995	-0.0227
128.35	0.03014	-0.0225
128.4	0.02995	-0.0216
128.45	0.02983	-0.0201
128.5	0.02969	-0.0187
128.55	0.02969	-0.0177
128.6	0.02948	-0.0171
128.65	0.03004	-0.016
128.7	0.02994	-0.0145
128.75	0.03001	-0.0128
128.8	0.02997	-0.0113
128.85	0.03015	-0.0104
128.9	0.03084	-0.0095
128.95	0.03067	-0.0084
129.0	0.03049	-0.0072
129.05	0.03119	-0.0056
129.1	0.03128	-0.0044
129.15	0.03094	-0.0029
129.2	0.03113	-0.0013
129.25	0.03186	-0.00025313
129.3	0.03242	4.494e-17
129.35	0.03188	4.494e-17
129.4	0.03177	-7.5e-05
129.45	0.03194	-0.0004125
129.5	0.03178	-0.0004125
129.55	0.0322	-0.0004125
129.6	0.03192	-0.0004125
129.65	0.03185	-0.0004125
129.7	0.0318	-0.0003
129.75	0.03209	-4.6875e-05
129.8	0.03204	4.4967e-17
129.85	0.03186	4.4967e-17
129.9	0.03227	4.4967e-17
129.95	0.03194	4.4967e-17
130.0	0.03169	4.4967e-17
130.05	0.03186	-9.375e-06
130.1	0.03175	-0.00013125
130.15	0.03197	-0.00025312
130.2	0.03191	-0.0002625
130.25	0.03217	-0.0002625
130.3	0.03209	-0.0002625
130.35	0.03209	-0.0002625
130.4	0.03192	-0.0002625
130.45	0.03209	-0.0002625
130.5	0.03242	-0.0002625
130.55	0.03218	-0.0002625
130.6	0.03209	-0.0002625
130.65	0.03212	-0.0002625
130.7	0.03217	-0.0002625
130.75	0.03201	-0.0002625
130.8	0.03242	-0.0002625
130.85	0.03218	-0.0002625
130.9	0.03229	-0.0002625
130.95	0.032	-0.0002625
131.0	0.03209	-0.0002625
131.05	0.03214	-0.0002625
131.1	0.0321	-0.0002625
131.15	0.03227	-0.0002625
