Time (s)	Light Intensity (% of scale max)	Position (m)
0.0	1.04688	0.0
0.05	1.22055	0.0
0.1	1.05502	0.0
0.15	1.06575	0.0
0.2	1.23524	0.0
0.25	0.89796	0.0
0.3	1.11887	0.0
0.35	1.01393	0.0
0.4	0.89931	0.0
0.45	1.15944	0.0
0.5	0.94716	0.0
0.55	0.98242	0.0
0.6	1.05769	0.0
0.65	0.87843	0.0
0.7	1.17102	0.0
0.75	0.92157	0.0
0.8	1.26309	0.0
0.85	1.02612	0.0
0.9	1.29686	0.0
0.95	1.12352	0.0
1.0	1.48688	0.0
1.05	1.32678	0.0
1.1	1.28908	0.0
1.15	1.14003	0.0
1.2	1.09474	0.0
1.25	1.274	0.0
1.3	1.07349	0.0
1.35	1.22702	0.0
1.4	1.25302	0.0
1.45	0.99771	0.0
1.5	1.3239	0.0
1.55	1.13739	0.0
1.6	1.03719	0.0
1.65	1.31584	0.0
1.7	1.17719	0.0
1.75	1.06496	0.0
1.8	1.34904	0.0
1.85	1.17792	3.75e-05
1.9	1.07097	3.75e-05
1.95	1.30379	3.75e-05
2.0	1.17659	3.75e-05
2.05	0.96309	3.75e-05
2.1	1.22491	3.75e-05
2.15	0.99847	3.75e-05
2.2	0.91844	0.0
2.25	1.13081	0.0
2.3	0.98474	0.0
2.35	0.90645	0.0
2.4	1.14943	0.0
2.45	1.02272	0.0
2.5	1.04608	0.0
2.55	1.22549	-0.00042188
2.6	1.1171	-0.000675
2.65	0.99051	-0.0011
2.7	1.21053	-0.0013
2.75	1.14175	-0.0018
2.8	1.10765	-0.0024
2.85	1.08279	-0.0029
2.9	1.29674	-0.0034
2.95	1.12125	-0.0043
3.0	1.00093	-0.0053
3.05	1.24522	-0.0059
3.1	1.11272	-0.0065
3.15	0.99756	-0.0072
3.2	1.26939	-0.0077
3.25	0.92072	-0.0085
3.3	1.0275	-0.0086
3.35	1.03819	-0.0083
3.4	0.88974	-0.0082
3.45	1.18613	-0.0082
3.5	1.01932	-0.0082
3.55	0.9173	-0.0082
3.6	1.20432	-0.0082
3.65	1.06969	-0.0082
3.7	0.9595	-0.0082
3.75	1.14406	-0.0082
3.8	1.20195	-0.0083
3.85	0.99974	-0.0089
3.9	0.95711	-0.0096
3.95	1.1288	-0.0105
4.0	1.00853	-0.0116
4.05	0.90248	-0.0123
4.1	1.17056	-0.013
4.15	1.02942	-0.0136
4.2	0.96471	-0.0142
4.25	1.19464	-0.015
4.3	1.08826	-0.0157
4.35	0.9765	-0.0164
4.4	1.25154	-0.017
4.45	1.04259	-0.0174
4.5	0.97943	-0.0179
4.55	1.2124	-0.0184
4.6	1.07927	-0.0191
4.65	0.98415	-0.0196
4.7	1.25529	-0.0197
4.75	1.09262	-0.0196
4.8	1.28371	-0.0194
4.85	1.26308	-0.0194
4.9	1.02507	-0.0194
4.95	1.16858	-0.0194
5.0	1.32277	-0.0194
5.05	1.11452	-0.0194
5.1	1.05705	-0.0194
5.15	1.17439	-0.0194
5.2	1.20404	-0.0194
5.25	1.14333	-0.0194
5.3	1.1582	-0.0197
5.35	1.35486	-0.0203
5.4	1.34857	-0.021
5.45	1.33418	-0.0216
5.5	1.29684	-0.0222
5.55	1.26343	-0.0229
5.6	1.45885	-0.0237
5.65	1.34128	-0.0245
5.7	1.23543	-0.0251
5.75	1.32349	-0.0256
5.8	1.5296	-0.026
5.85	1.48599	-0.0263
5.9	1.48331	-0.0269
5.95	1.41766	-0.0273
6.0	1.55997	-0.0275
6.05	1.62971	-0.0275
6.1	1.51517	-0.0272
6.15	1.29561	-0.027
6.2	1.37436	-0.027
6.25	1.57216	-0.027
6.3	1.48959	-0.027
6.35	1.46506	-0.027
6.4	1.3707	-0.027
6.45	1.44644	-0.027
6.5	1.57924	-0.027
6.55	1.51851	-0.0271
6.6	1.50426	-0.0273
6.65	1.45274	-0.0275
6.7	1.54675	-0.0278
6.75	1.58595	-0.0285
6.8	1.4704	-0.0295
6.85	1.40334	-0.0306
6.9	1.37669	-0.0317
6.95	1.37817	-0.0324
7.0	1.58315	-0.0327
7.05	1.46313	-0.0331
7.1	1.24629	-0.0335
7.15	1.25537	-0.0339
7.2	1.4563	-0.0348
7.25	1.12772	-0.0358
7.3	1.10355	-0.0365
7.35	1.25412	-0.0371
7.4	1.07277	-0.0373
7.45	1.42302	-0.0372
7.5	1.1917	-0.0369
7.55	1.01755	-0.0368
7.6	1.34309	-0.0368
7.65	1.17328	-0.0368
7.7	1.18225	-0.0368
7.75	1.36592	-0.0368
7.8	1.21635	-0.0368
7.85	1.07092	-0.0368
7.9	1.33543	-0.037
7.95	1.1568	-0.0374
8.0	1.0188	-0.0385
8.05	1.28999	-0.0395
8.1	1.09985	-0.0403
8.15	0.99585	-0.0409
8.2	1.26411	-0.0414
8.25	1.06923	-0.0419
8.3	1.39601	-0.0425
8.35	1.19632	-0.0431
8.4	1.29163	-0.0436
8.45	1.33809	-0.0445
8.5	1.12595	-0.0455
8.55	1.44025	-0.0462
8.6	1.02417	-0.0467
8.65	1.45021	-0.0468
8.7	0.96028	-0.0467
8.75	1.33282	-0.0464
8.8	0.82726	-0.0464
8.85	1.15514	-0.0464
8.9	0.69662	-0.0464
8.95	0.98177	-0.0464
9.0	0.92307	-0.0464
9.05	0.83813	-0.0464
9.1	0.91048	-0.0464
9.15	0.73753	-0.0464
9.2	0.93205	-0.0466
9.25	0.68913	-0.0472
9.3	0.9666	-0.0483
9.35	0.77156	-0.0494
9.4	1.11284	-0.05
9.45	0.81526	-0.0504
9.5	1.15372	-0.0509
9.55	0.83699	-0.0516
9.6	1.19772	-0.0522
9.65	0.89157	-0.0528
9.7	1.26382	-0.0534
9.75	0.97681	-0.0538
9.8	1.35205	-0.0539
9.85	0.95909	-0.0538
9.9	1.3938	-0.0537
9.95	0.99434	-0.0536
10.0	1.38083	-0.0536
10.05	1.1375	-0.0536
10.1	1.08849	-0.0536
10.15	1.37083	-0.0536
10.2	1.35043	-0.0535
10.25	1.35266	-0.0534
10.3	1.27271	-0.0535
10.35	1.37433	-0.0536
10.4	1.45322	-0.0537
10.45	1.37038	-0.0551
10.5	1.19426	-0.0571
10.55	1.04849	-0.0593
10.6	1.38266	-0.0611
10.65	1.15988	-0.0619
10.7	1.40454	-0.0623
10.75	1.20049	-0.0627
10.8	1.24417	-0.063
10.85	1.26811	-0.0633
10.9	1.04529	-0.0634
10.95	1.33099	-0.0633
11.0	0.91916	-0.0632
11.05	1.22945	-0.0632
11.1	1.20367	-0.0632
11.15	0.95767	-0.0632
11.2	1.22792	-0.0632
11.25	1.09453	-0.0632
11.3	0.9912	-0.0633
11.35	1.30795	-0.0633
11.4	1.16328	-0.0635
11.45	1.05487	-0.0637
11.5	1.35991	-0.0641
11.55	1.16811	-0.0647
11.6	1.31964	-0.0654
11.65	1.29245	-0.0658
11.7	1.01169	-0.0664
11.75	1.35347	-0.0672
11.8	0.90891	-0.0678
11.85	1.33273	-0.0686
11.9	0.87291	-0.0695
11.95	1.29385	-0.0704
12.0	0.87979	-0.0711
12.05	1.3613	-0.0718
12.1	0.88133	-0.0719
12.15	1.41193	-0.0719
12.2	0.89027	-0.0719
12.25	1.36461	-0.0718
12.3	0.87444	-0.0714
12.35	1.18982	-0.0714
12.4	1.18779	-0.0714
12.45	0.9176	-0.0714
12.5	1.22563	-0.0714
12.55	0.91029	-0.0714
12.6	1.00351	-0.0714
12.65	1.02086	-0.0715
12.7	0.85605	-0.0718
12.75	1.12238	-0.0722
12.8	0.90007	-0.0729
12.85	1.23383	-0.0735
12.9	1.02605	-0.074
12.95	0.86794	-0.0743
13.0	1.1884	-0.075
13.05	0.99272	-0.0756
13.1	1.39726	-0.076
13.15	1.17538	-0.0762
13.2	1.4879	-0.0766
13.25	1.39227	-0.0773
13.3	1.32716	-0.0781
13.35	1.59177	-0.0787
13.4	1.16498	-0.0791
13.45	1.6467	-0.0793
13.5	1.11125	-0.0794
13.55	1.59492	-0.0795
13.6	1.5508	-0.0793
13.65	1.5874	-0.0788
13.7	1.8325	-0.0787
13.75	1.3952	-0.0787
13.8	1.57118	-0.0787
13.85	1.71837	-0.0787
13.9	1.63943	-0.0787
13.95	1.60948	-0.0787
14.0	1.50778	-0.0788
14.05	1.64252	-0.0789
14.1	1.73975	-0.079
14.15	1.50127	-0.0793
14.2	1.42471	-0.0795
14.25	1.30507	-0.08
14.3	1.66536	-0.0806
14.35	1.59157	-0.0811
14.4	1.44582	-0.0812
14.45	1.59323	-0.0812
14.5	1.80807	-0.0815
14.55	1.86705	-0.082
14.6	1.88673	-0.0824
14.65	1.86476	-0.0827
14.7	2.23045	-0.0832
14.75	2.28105	-0.0837
14.8	2.16179	-0.0841
14.85	1.96327	-0.0846
14.9	1.98062	-0.0849
14.95	2.2468	-0.0851
15.0	2.0446	-0.0853
15.05	1.88965	-0.0855
15.1	2.02351	-0.0856
15.15	2.16534	-0.0858
15.2	1.70219	-0.0859
15.25	1.78358	-0.0864
15.3	2.16289	-0.0866
15.35	1.61928	-0.0866
15.4	1.87096	-0.0866
15.45	1.85199	-0.0866
15.5	1.62056	-0.0866
15.55	2.32513	-0.0863
15.6	2.17972	-0.0861
15.65	2.1167	-0.0861
15.7	2.13719	-0.0861
15.75	2.34637	-0.0861
15.8	2.30151	-0.0861
15.85	2.12479	-0.0861
15.9	2.05719	-0.0862
15.95	2.34904	-0.0862
16.0	2.28439	-0.0863
16.05	2.19374	-0.0863
16.1	1.97098	-0.0865
16.15	2.08946	-0.0866
16.2	2.26735	-0.0866
16.25	2.1003	-0.0866
16.3	2.043	-0.0868
16.35	1.95984	-0.0873
16.4	2.33275	-0.0879
16.45	2.22928	-0.0881
16.5	2.08902	-0.0884
16.55	2.04471	-0.0889
16.6	2.20979	-0.0892
16.65	2.30574	-0.0892
16.7	2.23479	-0.0893
16.75	2.13402	-0.0896
16.8	2.28171	-0.0898
16.85	2.43217	-0.09
16.9	2.28523	-0.0901
16.95	2.14023	-0.0905
17.0	2.12811	-0.0907
17.05	2.49409	-0.091
17.1	2.3177	-0.0913
17.15	2.25089	-0.0913
17.2	2.18698	-0.0913
17.25	2.45334	-0.0913
17.3	2.54504	-0.0911
17.35	2.3622	-0.0909
17.4	2.30136	-0.0909
17.45	2.61475	-0.0909
17.5	2.50641	-0.0909
17.55	2.43488	-0.0909
17.6	2.32889	-0.0909
17.65	2.45352	-0.0909
17.7	2.59651	-0.0909
17.75	2.41315	-0.091
17.8	2.35017	-0.091
17.85	2.29655	-0.0913
17.9	2.51318	-0.0913
17.95	2.37608	-0.0913
18.0	2.18854	-0.0915
18.05	2.16371	-0.092
18.1	2.30247	-0.0923
18.15	2.13652	-0.0924
18.2	2.04506	-0.0926
18.25	1.89975	-0.093
18.3	2.04938	-0.0933
18.35	2.04463	-0.0934
18.4	1.9192	-0.0935
18.45	1.69533	-0.0937
18.5	1.61591	-0.094
18.55	1.74571	-0.0943
18.6	1.55067	-0.0945
18.65	1.33786	-0.0948
18.7	1.68306	-0.095
18.75	1.44171	-0.0952
18.8	1.68289	-0.0953
18.85	1.60251	-0.0954
18.9	1.31535	-0.0955
18.95	1.7009	-0.0957
19.0	1.14581	-0.0961
19.05	1.58078	-0.0962
19.1	1.56697	-0.0962
19.15	1.31255	-0.0962
19.2	1.6403	-0.0962
19.25	1.13777	-0.096
19.3	1.44968	-0.0958
19.35	1.3176	-0.0958
19.4	1.20615	-0.0958
19.45	1.53737	-0.0958
19.5	1.38199	-0.0958
19.55	1.29492	-0.0958
19.6	1.47908	-0.0958
19.65	1.49815	-0.0958
19.7	1.17171	-0.0959
19.75	1.37047	-0.096
19.8	1.5475	-0.0961
19.85	1.17004	-0.0961
19.9	1.35788	-0.0963
19.95	1.30963	-0.0966
20.0	1.13092	-0.0967
20.05	1.49207	-0.0968
20.1	1.27542	-0.0969
20.15	1.10124	-0.0971
20.2	1.41722	-0.0973
20.25	1.1844	-0.0976
20.3	1.51624	-0.0977
20.35	1.2798	-0.0979
20.4	1.39546	-0.0982
20.45	1.43172	-0.0983
20.5	1.12871	-0.0983
20.55	1.50995	-0.0983
20.6	1.04921	-0.0983
20.65	1.35435	-0.0982
20.7	1.42746	-0.0977
20.75	1.08109	-0.0975
20.8	1.37273	-0.0975
20.85	1.23068	-0.0975
20.9	1.1078	-0.0975
20.95	1.43428	-0.0975
21.0	1.27422	-0.0975
21.05	1.18558	-0.0975
21.1	1.43777	-0.0975
21.15	1.37079	-0.0976
21.2	1.09966	-0.0976
21.25	1.355	-0.0978
21.3	1.42656	-0.0979
21.35	1.0728	-0.0982
21.4	1.33624	-0.0985
21.45	1.19582	-0.0986
21.5	1.04451	-0.0988
21.55	1.33691	-0.0991
21.6	1.10202	-0.0993
21.65	1.46619	-0.0993
21.7	1.23006	-0.0994
21.75	1.02567	-0.0997
21.8	1.35692	-0.0999
21.85	1.0842	-0.1001
21.9	1.45805	-0.1004
21.95	1.20445	-0.1006
22.0	1.50961	-0.1007
22.05	1.34489	-0.1007
22.1	1.36044	-0.1007
22.15	1.45074	-0.1006
22.2	1.18806	-0.1001
22.25	1.57106	-0.1001
22.3	1.48215	-0.1001
22.35	1.22594	-0.1001
22.4	1.43748	-0.1001
22.45	1.41774	-0.1001
22.5	1.38577	-0.1001
22.55	1.29874	-0.1001
22.6	1.55745	-0.1001
22.65	1.48045	-0.1001
22.7	1.21382	-0.1002
22.75	1.29153	-0.1005
22.8	1.50273	-0.1006
22.85	1.10567	-0.1007
22.9	1.23999	-0.1008
22.95	1.24315	-0.101
23.0	1.07642	-0.1012
23.05	1.45158	-0.1016
23.1	1.25659	-0.102
23.15	1.10718	-0.1024
23.2	1.47673	-0.1027
23.25	1.27133	-0.1028
23.3	1.56038	-0.103
23.35	1.4791	-0.1033
23.4	1.23059	-0.1033
23.45	1.59409	-0.1033
23.5	1.27788	-0.1032
23.55	1.436	-0.1028
23.6	1.73074	-0.1027
23.65	1.67767	-0.1027
23.7	1.63435	-0.1027
23.75	1.6076	-0.1027
23.8	1.61662	-0.1027
23.85	1.75172	-0.1027
23.9	1.75592	-0.1027
23.95	1.63625	-0.1027
24.0	1.56885	-0.1027
24.05	1.53746	-0.1028
24.1	1.66768	-0.1032
24.15	1.5817	-0.1033
24.2	1.40771	-0.1033
24.25	1.32889	-0.1034
24.3	1.51762	-0.1036
24.35	1.49821	-0.1041
24.4	1.4566	-0.1046
24.45	1.34935	-0.1047
24.5	1.69856	-0.1047
24.55	1.56003	-0.1047
24.6	1.42947	-0.105
24.65	1.62746	-0.1054
24.7	1.83261	-0.1055
24.75	1.61952	-0.1056
24.8	1.57863	-0.106
24.85	1.724	-0.1066
24.9	2.15735	-0.107
24.95	2.03024	-0.107
25.0	1.88589	-0.1071
25.05	1.87427	-0.1071
25.1	2.07297	-0.1072
25.15	2.26003	-0.1076
25.2	2.19073	-0.1077
25.25	2.14642	-0.1074
25.3	3.25868	-0.107
25.35	3.29305	-0.107
25.4	3.18059	-0.107
25.45	2.95935	-0.107
25.5	3.02606	-0.107
25.55	3.2356	-0.107
25.6	3.13434	-0.107
25.65	3.07494	-0.107
25.7	3.19299	-0.107
25.75	3.30423	-0.107
25.8	3.23274	-0.107
25.85	2.95401	-0.1071
25.9	2.63986	-0.1073
25.95	2.67148	-0.1074
26.0	2.55492	-0.1075
26.05	2.52972	-0.1077
26.1	2.61459	-0.108
26.15	2.93925	-0.1087
26.2	2.94171	-0.109
26.25	2.87529	-0.1092
26.3	2.9323	-0.1094
26.35	3.45596	-0.1096
26.4	3.35568	-0.1096
26.45	3.25107	-0.1097
26.5	3.26421	-0.1097
26.55	3.52592	-0.1097
26.6	3.47739	-0.1097
26.65	3.29233	-0.1097
26.7	3.36893	-0.1093
26.75	4.91667	-0.1089
26.8	4.76808	-0.1089
26.85	4.70959	-0.1089
26.9	4.65295	-0.1089
26.95	4.83661	-0.1089
27.0	4.82805	-0.1089
27.05	4.66499	-0.1089
27.1	4.61514	-0.1089
27.15	4.81784	-0.109
27.2	4.51843	-0.1092
27.25	4.04581	-0.1095
27.3	3.35989	-0.1098
27.35	3.55048	-0.1099
27.4	3.6338	-0.11
27.45	4.05066	-0.1108
27.5	4.09093	-0.1112
27.55	4.18526	-0.1114
27.6	4.48245	-0.1114
27.65	4.38971	-0.1117
27.7	4.356	-0.1121
27.75	4.52927	-0.1123
27.8	4.74338	-0.1124
27.85	4.52452	-0.1125
27.9	4.44398	-0.1126
27.95	4.42638	-0.1128
28.0	4.70801	-0.1128
28.05	4.57809	-0.1128
28.1	4.66637	-0.1126
28.15	5.33116	-0.1123
28.2	5.50165	-0.1122
28.25	5.23395	-0.1122
28.3	5.12219	-0.1122
28.35	5.45496	-0.1122
28.4	5.32553	-0.1122
28.45	5.274	-0.1122
28.5	5.14848	-0.1124
28.55	4.99103	-0.1128
28.6	4.61124	-0.1129
28.65	4.31786	-0.1133
28.7	4.28397	-0.1137
28.75	4.48766	-0.1138
28.8	4.34949	-0.1138
28.85	4.27907	-0.1139
28.9	4.22403	-0.1143
28.95	4.34703	-0.1147
29.0	4.23309	-0.1147
29.05	4.00894	-0.1147
29.1	3.99365	-0.1148
29.15	4.23949	-0.1151
29.2	4.00116	-0.1155
29.25	3.92209	-0.1155
29.3	3.94241	-0.1155
29.35	4.1812	-0.1155
29.4	4.14137	-0.1155
29.45	4.3438	-0.1151
29.5	4.42763	-0.1148
29.55	4.76254	-0.1148
29.6	4.63805	-0.1148
29.65	4.57251	-0.1148
29.7	4.47685	-0.1148
29.75	4.6736	-0.1148
29.8	4.73802	-0.1148
29.85	4.55864	-0.1148
29.9	4.47897	-0.1148
29.95	4.51888	-0.1149
30.0	4.43239	-0.1151
30.05	4.24475	-0.1152
30.1	4.07523	-0.1153
30.15	4.17555	-0.1155
30.2	4.27336	-0.1157
30.25	3.94571	-0.116
30.3	3.74333	-0.1164
30.35	3.71495	-0.1165
30.4	3.99426	-0.1165
30.45	3.84439	-0.1166
30.5	3.65388	-0.1167
30.55	3.74515	-0.117
30.6	3.98428	-0.1172
30.65	3.81316	-0.1172
30.7	3.72508	-0.1175
30.75	3.60664	-0.1178
30.8	4.0011	-0.1179
30.85	3.88457	-0.1178
30.9	4.21918	-0.1175
30.95	4.3633	-0.1173
31.0	4.54665	-0.1173
31.05	4.49974	-0.1173
31.1	4.45554	-0.1173
31.15	4.39326	-0.1173
31.2	4.58118	-0.1173
31.25	4.60783	-0.1174
31.3	4.51019	-0.1174
31.35	4.21107	-0.1176
31.4	4.01237	-0.1179
31.45	3.97906	-0.1181
31.5	3.88895	-0.1187
31.55	3.82231	-0.1191
31.6	3.93697	-0.1193
31.65	4.08328	-0.1197
31.7	3.99837	-0.1199
31.75	3.84456	-0.1204
31.8	3.83778	-0.1206
31.85	4.15512	-0.1206
31.9	4.01718	-0.1207
31.95	3.91397	-0.1208
32.0	3.97787	-0.1211
32.05	4.21225	-0.1212
32.1	4.2514	-0.121
32.15	4.49551	-0.1206
32.2	4.45041	-0.1206
32.25	4.57602	-0.1206
32.3	4.63339	-0.1206
32.35	4.56473	-0.1206
32.4	4.47646	-0.1206
32.45	4.63052	-0.1206
32.5	4.71967	-0.1206
32.55	4.55951	-0.1206
32.6	4.4398	-0.1206
32.65	4.37605	-0.1209
32.7	4.39059	-0.121
32.75	4.24884	-0.1212
32.8	3.95056	-0.1216
32.85	3.98199	-0.1218
32.9	4.10435	-0.1222
32.95	3.87737	-0.1224
33.0	3.79172	-0.1225
33.05	3.6889	-0.1227
33.1	3.74167	-0.1232
33.15	3.49255	-0.1236
33.2	3.3302	-0.1237
33.25	3.21893	-0.1237
33.3	3.45714	-0.1237
33.35	3.38593	-0.1237
33.4	3.30341	-0.1237
33.45	3.24507	-0.1235
33.5	3.29707	-0.1231
33.55	3.24751	-0.1231
33.6	3.17203	-0.1231
33.65	3.00446	-0.1231
33.7	3.17677	-0.1231
33.75	3.21782	-0.1231
33.8	3.1526	-0.1231
33.85	3.06023	-0.1231
33.9	3.27917	-0.1231
33.95	3.36176	-0.1232
34.0	3.30878	-0.1234
34.05	3.19366	-0.1236
34.1	3.1864	-0.1239
34.15	2.99445	-0.1244
34.2	2.84201	-0.1246
34.25	2.74925	-0.1247
34.3	2.54039	-0.125
34.35	2.4321	-0.1256
34.4	2.24069	-0.1258
34.45	1.8365	-0.1262
34.5	1.78188	-0.1263
34.55	1.91977	-0.1263
34.6	2.00223	-0.1263
34.65	1.90855	-0.1262
34.7	1.47884	-0.1257
34.75	1.6373	-0.1255
34.8	1.77499	-0.1255
34.85	1.67365	-0.1255
34.9	1.63872	-0.1255
34.95	1.57404	-0.1255
35.0	1.67845	-0.1255
35.05	1.78871	-0.1255
35.1	1.73976	-0.1255
35.15	1.63506	-0.1255
35.2	1.58241	-0.1257
35.25	1.62747	-0.126
35.3	2.0491	-0.1263
35.35	1.90147	-0.1266
35.4	1.67014	-0.127
35.45	1.50175	-0.1271
35.5	1.75581	-0.1272
35.55	1.42461	-0.1273
35.6	1.28413	-0.1275
35.65	1.46794	-0.1279
35.7	1.25262	-0.1279
35.75	1.22958	-0.128
35.8	1.33968	-0.1283
35.85	1.07524	-0.1291
35.9	1.4559	-0.1292
35.95	1.18706	-0.1293
36.0	1.52234	-0.1293
36.05	1.28342	-0.1293
36.1	1.35651	-0.1292
36.15	1.45325	-0.1289
36.2	1.31808	-0.1288
36.25	1.2493	-0.1288
36.3	1.36961	-0.1288
36.35	1.35823	-0.1288
36.4	1.29317	-0.1288
36.45	1.18593	-0.1288
36.5	1.44733	-0.1288
36.55	1.34355	-0.1289
36.6	1.03934	-0.1292
36.65	1.29434	-0.1294
36.7	1.32619	-0.1298
36.75	1.11562	-0.1305
36.8	1.40761	-0.1309
36.85	1.33826	-0.131
36.9	1.23672	-0.1314
36.95	1.51889	-0.1318
37.0	1.61926	-0.1318
37.05	1.48807	-0.132
37.1	2.03192	-0.1324
37.15	2.22932	-0.1328
37.2	2.17523	-0.1329
37.25	2.00969	-0.1329
37.3	2.01785	-0.1328
37.35	2.60252	-0.1324
37.4	3.04189	-0.1323
37.45	2.98947	-0.1323
37.5	2.94594	-0.1323
37.55	3.15619	-0.1323
37.6	3.1342	-0.1323
37.65	2.96657	-0.1323
37.7	2.87619	-0.1323
37.75	3.02518	-0.1323
37.8	3.09843	-0.1323
37.85	3.0163	-0.1324
37.9	2.51341	-0.1326
37.95	2.24088	-0.1329
38.0	2.38255	-0.1331
38.05	2.96202	-0.1338
38.1	3.29892	-0.1344
38.15	3.5932	-0.1348
38.2	4.42017	-0.1351
38.25	4.82774	-0.1355
38.3	5.11429	-0.1357
38.35	5.92413	-0.1361
38.4	7.00066	-0.1365
38.45	6.7489	-0.1365
38.5	6.63231	-0.1365
38.55	6.87593	-0.1363
38.6	8.94275	-0.1359
38.65	9.71846	-0.1359
38.7	9.76726	-0.1359
38.75	9.90796	-0.1359
38.8	9.75102	-0.1359
38.85	9.59839	-0.1359
38.9	9.8134	-0.1359
38.95	9.72169	-0.1359
39.0	9.67041	-0.1359
39.05	9.62665	-0.1359
39.1	8.569	-0.1363
39.15	7.83882	-0.1365
39.2	8.1985	-0.1368
39.25	9.80646	-0.1375
39.3	10.76709	-0.138
39.35	12.07619	-0.1385
39.4	12.94078	-0.139
39.45	13.29489	-0.1392
39.5	13.55109	-0.1396
39.55	13.72153	-0.1399
39.6	14.03592	-0.14
39.65	13.86778	-0.14
39.7	14.05566	-0.1401
39.75	14.41499	-0.1403
39.8	14.3457	-0.1404
39.85	14.2518	-0.1404
39.9	14.53349	-0.1403
39.95	16.06966	-0.1399
40.0	16.05	-0.1398
40.05	16.05704	-0.1398
40.1	16.2338	-0.1398
40.15	16.13113	-0.1398
40.2	16.12076	-0.1398
40.25	16.36682	-0.1398
40.3	16.24934	-0.1398
40.35	16.05161	-0.1398
40.4	16.18509	-0.1398
40.45	16.10233	-0.1399
40.5	15.56573	-0.1401
40.55	15.00804	-0.1404
40.6	15.29315	-0.1411
40.65	15.2639	-0.1421
40.7	15.0966	-0.1427
40.75	15.21509	-0.1433
40.8	14.94293	-0.1439
40.85	14.28928	-0.1443
40.9	14.26309	-0.1447
40.95	14.19115	-0.1448
41.0	14.04546	-0.1449
41.05	13.94006	-0.145
41.1	14.11942	-0.1452
41.15	13.9104	-0.1452
41.2	13.96523	-0.1452
41.25	14.35841	-0.1451
41.3	14.26254	-0.1447
41.35	14.08789	-0.1447
41.4	14.31532	-0.1447
41.45	14.19794	-0.1447
41.5	14.1143	-0.1447
41.55	14.15105	-0.1447
41.6	14.28236	-0.1447
41.65	14.20026	-0.1447
41.7	14.26929	-0.1448
41.75	14.30269	-0.1451
41.8	13.87994	-0.1456
41.85	13.00066	-0.1465
41.9	12.70943	-0.1475
41.95	11.46423	-0.1484
42.0	10.82037	-0.1492
42.05	10.37842	-0.1501
42.1	9.43727	-0.1506
42.15	8.88034	-0.1512
42.2	8.17485	-0.1517
42.25	8.02373	-0.152
42.3	7.44682	-0.1525
42.35	6.6362	-0.1528
42.4	6.95879	-0.1528
42.45	6.75586	-0.1528
42.5	6.30193	-0.1525
42.55	6.24979	-0.1524
42.6	6.48756	-0.1524
42.65	6.3734	-0.1524
42.7	6.31297	-0.1524
42.75	6.49846	-0.1524
42.8	6.48528	-0.1524
42.85	6.27199	-0.1524
42.9	6.28429	-0.1524
42.95	6.44791	-0.1524
43.0	6.43715	-0.1525
43.05	6.35094	-0.153
43.1	5.96425	-0.1535
43.15	4.89677	-0.1544
43.2	3.86206	-0.1554
43.25	2.39093	-0.1563
43.3	2.13446	-0.157
43.35	1.62483	-0.1577
43.4	1.59538	-0.1581
43.45	1.80995	-0.1588
43.5	2.64424	-0.1591
43.55	2.54834	-0.1592
43.6	2.65683	-0.1594
43.65	3.19676	-0.1596
43.7	3.51819	-0.1596
43.75	4.19858	-0.1594
43.8	4.13063	-0.1593
43.85	4.06464	-0.1593
43.9	4.28018	-0.1593
43.95	4.30289	-0.1593
44.0	4.16594	-0.1593
44.05	4.05931	-0.1593
44.1	4.11145	-0.1593
44.15	4.26559	-0.1593
44.2	4.09987	-0.1593
44.25	4.11147	-0.1593
44.3	3.74895	-0.1594
44.35	3.88873	-0.1598
44.4	5.27713	-0.1607
44.45	13.90181	-0.162
44.5	17.45853	-0.1628
44.55	20.47324	-0.1633
44.6	27.15881	-0.1639
44.65	30.74818	-0.1644
44.7	38.30502	-0.1649
44.75	42.73495	-0.1654
44.8	51.35854	-0.1659
44.85	56.47263	-0.1664
44.9	60.62904	-0.1667
44.95	60.95982	-0.1667
45.0	60.6588	-0.1667
45.05	61.3709	-0.1667
45.1	63.23555	-0.1666
45.15	63.0999	-0.1666
45.2	63.27763	-0.1666
45.25	63.05948	-0.1666
45.3	62.93625	-0.1666
45.35	63.22534	-0.1666
45.4	63.02322	-0.1666
45.45	63.07953	-0.1666
45.5	63.22345	-0.1666
45.55	62.90247	-0.1666
45.6	63.1622	-0.1666
45.65	62.4859	-0.1667
45.7	68.37804	-0.1672
45.75	77.35188	-0.1682
45.8	94.6774	-0.1691
45.85	99.84404	-0.1699
45.9	100.0	-0.1708
45.95	100.0	-0.1713
46.0	100.0	-0.1719
46.05	100.0	-0.1725
46.1	100.0	-0.1728
46.15	100.0	-0.1731
46.2	100.0	-0.1733
46.25	100.0	-0.1734
46.3	100.0	-0.1734
46.35	100.0	-0.1732
46.4	100.0	-0.1732
46.45	100.0	-0.1732
46.5	100.0	-0.1732
46.55	100.0	-0.1732
46.6	100.0	-0.1732
46.65	100.0	-0.1732
46.7	100.0	-0.1732
46.75	100.0	-0.1732
46.8	100.0	-0.1732
46.85	100.0	-0.1732
46.9	100.0	-0.1732
46.95	100.0	-0.1734
47.0	100.0	-0.1735
47.05	100.0	-0.1736
47.1	100.0	-0.1741
47.15	100.0	-0.1749
47.2	100.0	-0.1753
47.25	100.0	-0.1758
47.3	100.0	-0.1762
47.35	100.0	-0.1767
47.4	100.0	-0.1772
47.45	100.0	-0.1775
47.5	100.0	-0.1776
47.55	100.0	-0.1779
47.6	100.0	-0.1783
47.65	100.0	-0.1786
47.7	100.0	-0.1786
47.75	100.0	-0.1786
47.8	100.0	-0.1786
47.85	100.0	-0.1783
47.9	100.0	-0.1783
47.95	100.0	-0.1783
48.0	100.0	-0.1783
48.05	100.0	-0.1783
48.1	100.0	-0.1783
48.15	100.0	-0.1783
48.2	100.0	-0.1783
48.25	100.0	-0.1783
48.3	100.0	-0.1784
48.35	100.0	-0.1787
48.4	100.0	-0.1792
48.45	100.0	-0.1796
48.5	100.0	-0.1802
48.55	100.0	-0.1808
48.6	100.0	-0.1813
48.65	100.0	-0.1817
48.7	100.0	-0.1822
48.75	100.0	-0.1825
48.8	100.0	-0.1829
48.85	100.0	-0.183
48.9	100.0	-0.183
48.95	100.0	-0.183
49.0	100.0	-0.183
49.05	100.0	-0.1828
49.1	100.0	-0.1828
49.15	100.0	-0.1828
49.2	100.0	-0.1828
49.25	100.0	-0.1828
49.3	100.0	-0.1828
49.35	100.0	-0.1828
49.4	100.0	-0.1828
49.45	100.0	-0.1828
49.5	100.0	-0.1828
49.55	100.0	-0.1828
49.6	100.0	-0.1828
49.65	100.0	-0.1829
49.7	100.0	-0.183
49.75	100.0	-0.1831
49.8	100.0	-0.1834
49.85	100.0	-0.1838
49.9	100.0	-0.1841
49.95	100.0	-0.1845
50.0	100.0	-0.185
50.05	100.0	-0.1854
50.1	100.0	-0.1857
50.15	100.0	-0.1858
50.2	100.0	-0.186
50.25	100.0	-0.1864
50.3	100.0	-0.1867
50.35	100.0	-0.187
50.4	100.0	-0.187
50.45	100.0	-0.1872
50.5	100.0	-0.1874
50.55	100.0	-0.1874
50.6	100.0	-0.1873
50.65	100.0	-0.187
50.7	100.0	-0.187
50.75	100.0	-0.187
50.8	100.0	-0.187
50.85	100.0	-0.187
50.9	100.0	-0.187
50.95	100.0	-0.187
51.0	100.0	-0.187
51.05	100.0	-0.187
51.1	100.0	-0.187
51.15	100.0	-0.187
51.2	100.0	-0.187
51.25	100.0	-0.1871
51.3	100.0	-0.1874
51.35	100.0	-0.1876
51.4	100.0	-0.1882
51.45	100.0	-0.1887
51.5	100.0	-0.1892
51.55	100.0	-0.1892
51.6	100.0	-0.1893
51.65	100.0	-0.1895
51.7	100.0	-0.1897
51.75	100.0	-0.1899
51.8	100.0	-0.19
51.85	100.0	-0.1903
51.9	100.0	-0.1904
51.95	100.0	-0.1905
52.0	100.0	-0.1904
52.05	100.0	-0.1901
52.1	100.0	-0.19
52.15	100.0	-0.19
52.2	100.0	-0.19
52.25	100.0	-0.19
52.3	100.0	-0.19
52.35	100.0	-0.19
52.4	100.0	-0.19
52.45	100.0	-0.19
52.5	100.0	-0.1901
52.55	100.0	-0.1903
52.6	100.0	-0.1904
52.65	100.0	-0.1907
52.7	100.0	-0.191
52.75	100.0	-0.1913
52.8	100.0	-0.1916
52.85	100.0	-0.192
52.9	100.0	-0.1925
52.95	100.0	-0.1929
53.0	100.0	-0.193
53.05	100.0	-0.1931
53.1	100.0	-0.1935
53.15	100.0	-0.1937
53.2	100.0	-0.1938
53.25	100.0	-0.194
53.3	100.0	-0.1943
53.35	100.0	-0.1944
53.4	100.0	-0.1944
53.45	100.0	-0.1942
53.5	100.0	-0.1938
53.55	100.0	-0.1938
53.6	100.0	-0.1938
53.65	100.0	-0.1938
53.7	100.0	-0.1938
53.75	100.0	-0.1938
53.8	100.0	-0.1938
53.85	100.0	-0.1938
53.9	100.0	-0.1938
53.95	100.0	-0.1939
54.0	100.0	-0.1942
54.05	100.0	-0.1944
54.1	100.0	-0.1945
54.15	100.0	-0.1952
54.2	100.0	-0.1959
54.25	100.0	-0.1965
54.3	100.0	-0.1971
54.35	100.0	-0.1973
54.4	100.0	-0.1974
54.45	100.0	-0.1977
54.5	100.0	-0.1979
54.55	100.0	-0.1981
54.6	100.0	-0.1983
54.65	100.0	-0.1986
54.7	100.0	-0.1987
54.75	100.0	-0.1988
54.8	100.0	-0.1988
54.85	100.0	-0.1986
54.9	100.0	-0.1983
54.95	100.0	-0.1982
55.0	100.0	-0.1982
55.05	100.0	-0.1982
55.1	100.0	-0.1982
55.15	100.0	-0.1982
55.2	100.0	-0.1982
55.25	100.0	-0.1982
55.3	100.0	-0.1983
55.35	100.0	-0.1987
55.4	100.0	-0.1992
55.45	100.0	-0.1999
55.5	100.0	-0.2006
55.55	100.0	-0.2008
55.6	100.0	-0.201
55.65	100.0	-0.2015
55.7	100.0	-0.2017
55.75	100.0	-0.2018
55.8	100.0	-0.2021
55.85	100.0	-0.2027
55.9	100.0	-0.2028
55.95	100.0	-0.2029
56.0	100.0	-0.2031
56.05	100.0	-0.2034
56.1	100.0	-0.2033
56.15	99.65559	-0.2032
56.2	83.10947	-0.2028
56.25	83.08939	-0.2028
56.3	83.29878	-0.2028
56.35	83.30368	-0.2028
56.4	82.88863	-0.2028
56.45	82.65935	-0.2028
56.5	83.32588	-0.2028
56.55	83.22128	-0.2028
56.6	83.64265	-0.2028
56.65	85.20815	-0.2032
56.7	89.21143	-0.2034
56.75	89.00262	-0.2035
56.8	88.32567	-0.2037
56.85	81.09567	-0.2044
56.9	78.62737	-0.2046
56.95	77.59126	-0.2046
57.0	77.47581	-0.2046
57.05	76.37407	-0.2047
57.1	75.30583	-0.2048
57.15	60.87071	-0.2054
57.2	56.92638	-0.2058
57.25	53.4653	-0.2059
57.3	50.81596	-0.2061
57.35	50.2511	-0.2061
57.4	49.96863	-0.2062
57.45	49.84494	-0.2063
57.5	47.98817	-0.2064
57.55	44.31657	-0.2061
57.6	36.35268	-0.2059
57.65	36.09274	-0.2059
57.7	36.1911	-0.2059
57.75	36.12857	-0.2059
57.8	36.44922	-0.2059
57.85	36.04305	-0.2059
57.9	35.95758	-0.2059
57.95	36.12154	-0.2059
58.0	36.26247	-0.206
58.05	40.79698	-0.2062
58.1	41.62949	-0.2064
58.15	39.61664	-0.2066
58.2	36.7392	-0.2072
58.25	34.45987	-0.2076
58.3	29.82347	-0.208
58.35	26.72598	-0.2085
58.4	20.57925	-0.2089
58.45	18.688	-0.2092
58.5	16.862	-0.2095
58.55	14.75462	-0.2098
58.6	13.49931	-0.21
58.65	11.35847	-0.2103
58.7	10.63512	-0.2104
58.75	9.6241	-0.2104
58.8	7.10791	-0.21
58.85	6.21468	-0.2099
58.9	5.98837	-0.2099
58.95	6.01166	-0.2099
59.0	6.19022	-0.2099
59.05	6.06818	-0.2099
59.1	5.98567	-0.2099
59.15	6.23575	-0.2099
59.2	6.17871	-0.2099
59.25	5.92255	-0.21
59.3	6.10057	-0.2101
59.35	6.65094	-0.2104
59.4	8.13242	-0.2108
59.45	7.92012	-0.2111
59.5	5.60599	-0.2115
59.55	4.31007	-0.2121
59.6	3.61418	-0.2124
59.65	2.71596	-0.2128
59.7	2.74117	-0.213
59.75	2.50137	-0.2132
59.8	1.9381	-0.2135
59.85	1.7762	-0.2137
59.9	1.97101	-0.2138
59.95	1.79863	-0.214
60.0	1.7168	-0.214
60.05	1.57341	-0.214
60.1	1.57945	-0.214
60.15	1.6673	-0.2135
60.2	1.62097	-0.2134
60.25	1.58798	-0.2134
60.3	1.54715	-0.2134
60.35	1.58643	-0.2134
60.4	1.70921	-0.2134
60.45	1.67903	-0.2134
60.5	1.57961	-0.2134
60.55	1.51297	-0.2134
60.6	1.4919	-0.2134
60.65	1.72424	-0.2135
60.7	1.65256	-0.2138
60.75	1.53416	-0.2141
60.8	1.45226	-0.2143
60.85	1.51062	-0.2145
60.9	1.78644	-0.215
60.95	1.85657	-0.2156
61.0	1.88939	-0.2158
61.05	2.22092	-0.2163
61.1	2.62865	-0.2166
61.15	3.13422	-0.2171
61.2	3.52803	-0.2175
61.25	3.52504	-0.2176
61.3	3.7068	-0.2178
61.35	4.73305	-0.2182
61.4	4.65808	-0.2183
61.45	4.53857	-0.2183
61.5	4.74612	-0.2182
61.55	5.66101	-0.2178
61.6	6.05537	-0.2177
61.65	5.94632	-0.2177
61.7	6.25053	-0.2177
61.75	6.1275	-0.2177
61.8	6.05016	-0.2177
61.85	6.14806	-0.2177
61.9	6.24821	-0.2177
61.95	6.12651	-0.2177
62.0	5.91084	-0.2177
62.05	6.13966	-0.2179
62.1	5.72391	-0.2183
62.15	5.55298	-0.2188
62.2	6.02657	-0.2194
62.25	7.26273	-0.2198
62.3	7.54539	-0.2202
62.35	8.33153	-0.2206
62.4	8.92912	-0.2209
62.45	9.48283	-0.2212
62.5	10.05923	-0.2214
62.55	10.11406	-0.2216
62.6	11.43631	-0.222
62.65	11.33813	-0.222
62.7	11.19424	-0.222
62.75	12.49744	-0.2218
62.8	13.83426	-0.2215
62.85	13.87802	-0.2215
62.9	14.09666	-0.2215
62.95	14.15417	-0.2215
63.0	13.91127	-0.2215
63.05	13.92265	-0.2215
63.1	14.06102	-0.2215
63.15	13.97856	-0.2215
63.2	13.88913	-0.2215
63.25	14.15691	-0.2215
63.3	13.97398	-0.2216
63.35	13.6349	-0.2217
63.4	13.46783	-0.222
63.45	12.9021	-0.2222
63.5	12.21481	-0.2225
63.55	13.23387	-0.223
63.6	14.79047	-0.2235
63.65	15.07959	-0.2237
63.7	15.68141	-0.2241
63.75	17.35652	-0.2245
63.8	17.52971	-0.2247
63.85	18.21371	-0.2249
63.9	19.16496	-0.2253
63.95	19.46382	-0.2256
64.0	19.70776	-0.2257
64.05	20.06494	-0.2257
64.1	19.81229	-0.2257
64.15	19.72943	-0.2257
64.2	21.58524	-0.2249
64.25	21.4201	-0.2249
64.3	21.34119	-0.2249
64.35	21.59424	-0.2249
64.4	21.44147	-0.2249
64.45	21.68449	-0.2249
64.5	21.58281	-0.2249
64.55	21.38792	-0.2249
64.6	21.68336	-0.2249
64.65	21.57695	-0.2249
64.7	21.29478	-0.2251
64.75	21.427	-0.2254
64.8	20.61081	-0.2256
64.85	20.52495	-0.2258
64.9	20.96486	-0.2262
64.95	21.40514	-0.2267
65.0	21.57214	-0.2269
65.05	22.12933	-0.2274
65.1	22.03415	-0.2278
65.15	22.09355	-0.2283
65.2	21.62878	-0.2287
65.25	20.77527	-0.229
65.3	20.92043	-0.2292
65.35	20.74489	-0.2293
65.4	19.8961	-0.2295
65.45	20.2029	-0.2295
65.5	19.85229	-0.2296
65.55	19.84308	-0.2296
65.6	19.92766	-0.2296
65.65	18.86765	-0.229
65.7	17.95557	-0.2286
65.75	18.08125	-0.2286
65.8	17.96219	-0.2286
65.85	18.07976	-0.2286
65.9	18.27502	-0.2286
65.95	18.07813	-0.2286
66.0	17.85846	-0.2286
66.05	18.04463	-0.2286
66.1	18.01013	-0.2287
66.15	18.0807	-0.2293
66.2	19.50522	-0.2298
66.25	18.95316	-0.23
66.3	17.81149	-0.2305
66.35	16.67006	-0.2309
66.4	16.04665	-0.2311
66.45	13.89415	-0.2317
66.5	13.39125	-0.2321
66.55	12.62943	-0.2326
66.6	10.56071	-0.2331
66.65	9.9771	-0.2335
66.7	9.57178	-0.2337
66.75	8.73956	-0.2341
66.8	8.35101	-0.2343
66.85	8.29361	-0.2344
66.9	8.17662	-0.2344
66.95	6.49802	-0.2339
67.0	6.53946	-0.2338
67.05	6.71564	-0.2338
67.1	6.55373	-0.2338
67.15	6.49649	-0.2338
67.2	6.54948	-0.2338
67.25	6.65089	-0.2338
67.3	6.54311	-0.2338
67.35	6.51353	-0.2338
67.4	6.69998	-0.2339
67.45	6.65256	-0.2339
67.5	6.48026	-0.234
67.55	6.68304	-0.2343
67.6	7.09245	-0.2346
67.65	6.8452	-0.2351
67.7	6.30188	-0.2358
67.75	5.7699	-0.2364
67.8	5.28517	-0.2368
67.85	4.41817	-0.2374
67.9	4.10921	-0.238
67.95	4.05528	-0.2384
68.0	3.55798	-0.2388
68.05	3.37749	-0.239
68.1	3.17628	-0.2393
68.15	3.19051	-0.2396
68.2	3.00732	-0.2397
68.25	2.79951	-0.2397
68.3	2.54759	-0.2393
68.35	2.51273	-0.2391
68.4	2.33859	-0.2391
68.45	2.3036	-0.2391
68.5	2.24936	-0.2391
68.55	2.50438	-0.2391
68.6	2.41757	-0.2391
68.65	2.27744	-0.2391
68.7	2.26158	-0.2392
68.75	2.41353	-0.2392
68.8	2.49831	-0.2396
68.85	2.59015	-0.2402
68.9	2.40808	-0.2407
68.95	2.15457	-0.2415
69.0	2.04468	-0.242
69.05	1.8658	-0.2423
69.1	1.6088	-0.2426
69.15	1.51215	-0.2429
69.2	1.73094	-0.2431
69.25	1.56682	-0.2433
69.3	1.45795	-0.2434
69.35	1.6813	-0.2435
69.4	1.67365	-0.2436
69.45	1.51781	-0.2436
69.5	1.43733	-0.2436
69.55	1.70396	-0.2434
69.6	1.65187	-0.2429
69.65	1.61906	-0.2429
69.7	1.55814	-0.2429
69.75	1.74359	-0.2429
69.8	1.7496	-0.2429
69.85	1.6743	-0.2429
69.9	1.58379	-0.2429
69.95	1.53804	-0.243
70.0	1.63095	-0.243
70.05	1.70015	-0.2433
70.1	1.6192	-0.2436
70.15	1.56938	-0.244
70.2	1.6454	-0.2446
70.25	1.91869	-0.2453
70.3	2.04846	-0.2458
70.35	2.05635	-0.2461
70.4	2.05135	-0.2465
70.45	2.24854	-0.2468
70.5	2.49747	-0.2471
70.55	2.47884	-0.2475
70.6	2.43918	-0.2477
70.65	2.5249	-0.2481
70.7	2.91618	-0.2484
70.75	2.81502	-0.2485
70.8	2.83716	-0.2487
70.85	2.95259	-0.2486
70.9	3.43558	-0.2482
70.95	3.5341	-0.248
71.0	3.35184	-0.248
71.05	3.29723	-0.248
71.1	3.41878	-0.248
71.15	3.43436	-0.248
71.2	3.35809	-0.248
71.25	3.26924	-0.2481
71.3	3.46875	-0.2481
71.35	3.50533	-0.2484
71.4	3.06911	-0.2488
71.45	2.95825	-0.2492
71.5	3.0843	-0.2495
71.55	3.56404	-0.2499
71.6	3.59799	-0.2503
71.65	3.69269	-0.2506
71.7	4.00259	-0.2509
71.75	4.41142	-0.2514
71.8	4.86256	-0.252
71.85	5.06786	-0.2524
71.9	5.29205	-0.2529
71.95	6.28448	-0.2533
72.0	6.61833	-0.2538
72.05	6.78406	-0.254
72.1	7.10912	-0.254
72.15	7.12454	-0.254
72.2	7.3342	-0.2537
72.25	7.81697	-0.2533
72.3	8.1015	-0.2532
72.35	7.991	-0.2532
72.4	7.93716	-0.2532
72.45	7.93935	-0.2532
72.5	8.09329	-0.2532
72.55	8.05789	-0.2533
72.6	7.86574	-0.2533
72.65	7.80363	-0.2535
72.7	7.72974	-0.2539
72.75	7.57257	-0.2544
72.8	7.7719	-0.255
72.85	8.20441	-0.2557
72.9	8.24852	-0.2563
72.95	7.85255	-0.2569
73.0	7.03964	-0.2575
73.05	6.8437	-0.2581
73.1	6.52864	-0.2584
73.15	6.17159	-0.2588
73.2	5.79562	-0.2592
73.25	5.8625	-0.2596
73.3	5.5553	-0.2599
73.35	5.25227	-0.2599
73.4	5.48135	-0.2599
73.45	5.63063	-0.2597
73.5	5.06126	-0.2592
73.55	5.00104	-0.2592
73.6	5.09471	-0.2592
73.65	5.16747	-0.2592
73.7	5.10168	-0.2592
73.75	5.06139	-0.2592
73.8	5.2628	-0.2592
73.85	5.20384	-0.2592
73.9	5.03003	-0.2592
73.95	4.99185	-0.2596
74.0	5.24356	-0.2602
74.05	5.08151	-0.2607
74.1	4.91008	-0.2616
74.15	4.92035	-0.2622
74.2	4.96718	-0.2627
74.25	4.82808	-0.2633
74.3	4.65564	-0.2637
74.35	4.69832	-0.2639
74.4	4.80997	-0.2641
74.45	4.6918	-0.2644
74.5	4.53023	-0.2648
74.55	4.62991	-0.2649
74.6	4.66968	-0.2651
74.65	4.45406	-0.2652
74.7	4.28517	-0.2653
74.75	4.38074	-0.2652
74.8	3.88496	-0.2646
74.85	3.77771	-0.2645
74.9	3.73387	-0.2645
74.95	3.82315	-0.2645
75.0	3.92888	-0.2645
75.05	3.84964	-0.2645
75.1	3.71413	-0.2645
75.15	3.70143	-0.2646
75.2	3.83238	-0.2646
75.25	3.94325	-0.2648
75.3	4.09024	-0.2652
75.35	3.89311	-0.2655
75.4	3.75658	-0.2664
75.45	3.48813	-0.2669
75.5	3.08363	-0.2671
75.55	2.91042	-0.2672
75.6	2.6927	-0.2676
75.65	2.46887	-0.2681
75.7	2.14427	-0.2686
75.75	1.66435	-0.2693
75.8	1.69398	-0.2696
75.85	1.79185	-0.2702
75.9	1.43884	-0.2706
75.95	1.24467	-0.271
76.0	1.58676	-0.2711
76.05	1.40277	-0.2711
76.1	1.26044	-0.2706
76.15	1.57436	-0.2703
76.2	1.50082	-0.2703
76.25	1.4476	-0.2703
76.3	1.35681	-0.2703
76.35	1.33524	-0.2703
76.4	1.4688	-0.2703
76.45	1.46324	-0.2704
76.5	1.39555	-0.2708
76.55	1.33418	-0.2713
76.6	1.53793	-0.2717
76.65	1.5441	-0.2725
76.7	1.30389	-0.2734
76.75	1.38695	-0.2744
76.8	1.80774	-0.2751
76.85	1.77409	-0.2755
76.9	1.80096	-0.2761
76.95	1.83134	-0.2765
77.0	2.02621	-0.2767
77.05	2.12596	-0.2768
77.1	1.98447	-0.277
77.15	1.90945	-0.2771
77.2	1.86163	-0.2772
77.25	2.20982	-0.2772
77.3	2.10077	-0.2771
77.35	2.04054	-0.2766
77.4	2.03282	-0.2764
77.45	2.12946	-0.2764
77.5	2.21547	-0.2764
77.55	2.13779	-0.2764
77.6	2.10077	-0.2764
77.65	2.11998	-0.2764
77.7	2.27377	-0.2765
77.75	2.23799	-0.2768
77.8	2.00334	-0.2772
77.85	1.93065	-0.2774
77.9	2.03976	-0.278
77.95	2.40251	-0.2787
78.0	2.3632	-0.2791
78.05	2.35172	-0.2794
78.1	2.65466	-0.28
78.15	3.05566	-0.2807
78.2	3.25842	-0.2812
78.25	3.37846	-0.2817
78.3	3.67821	-0.2821
78.35	4.09435	-0.2822
78.4	4.08066	-0.2824
78.45	3.9472	-0.2824
78.5	4.04231	-0.2824
78.55	4.3343	-0.282
78.6	4.53151	-0.2817
78.65	4.5015	-0.2817
78.7	4.44278	-0.2817
78.75	4.67606	-0.2817
78.8	4.60905	-0.2817
78.85	4.54311	-0.2817
78.9	4.44432	-0.2817
78.95	4.56345	-0.2817
79.0	4.5269	-0.2818
79.05	4.29219	-0.2821
79.1	4.03972	-0.2823
79.15	4.26703	-0.2824
79.2	4.3943	-0.2826
79.25	4.42493	-0.2832
79.3	4.49513	-0.284
79.35	4.48039	-0.2844
79.4	4.51714	-0.2847
79.45	4.3233	-0.2849
79.5	4.08714	-0.2854
79.55	4.01149	-0.2857
79.6	4.02219	-0.286
79.65	3.7688	-0.2865
79.7	3.39137	-0.2869
79.75	3.38831	-0.2872
79.8	3.66794	-0.2872
79.85	3.5248	-0.2872
79.9	3.4487	-0.2872
79.95	3.50336	-0.2867
80.0	3.68927	-0.2865
80.05	3.6539	-0.2865
80.1	3.47893	-0.2865
80.15	3.42546	-0.2865
80.2	3.54718	-0.2865
80.25	3.61356	-0.2865
80.3	3.53365	-0.2865
80.35	3.43658	-0.2865
80.4	3.61168	-0.2867
80.45	3.6752	-0.287
80.5	3.47961	-0.2872
80.55	3.46315	-0.288
80.6	3.65211	-0.2889
80.65	4.08594	-0.2895
80.7	4.00987	-0.29
80.75	3.91211	-0.2904
80.8	4.02576	-0.2908
80.85	4.17464	-0.2912
80.9	3.78319	-0.2916
80.95	3.53473	-0.292
81.0	3.2382	-0.2924
81.05	3.25035	-0.2927
81.1	3.1003	-0.2927
81.15	3.01949	-0.2927
81.2	2.95085	-0.2927
81.25	3.1898	-0.2926
81.3	2.62143	-0.292
81.35	2.58168	-0.2919
81.4	2.52342	-0.2919
81.45	2.79265	-0.2919
81.5	2.69046	-0.2919
81.55	2.62016	-0.2919
81.6	2.51805	-0.2919
81.65	2.66887	-0.2919
81.7	2.66066	-0.2919
81.75	2.68518	-0.2922
81.8	2.76357	-0.2926
81.85	3.05811	-0.2927
81.9	2.85066	-0.2932
81.95	2.4528	-0.294
82.0	2.08949	-0.2946
82.05	2.14868	-0.295
82.1	2.2251	-0.2953
82.15	2.12589	-0.2954
82.2	2.06032	-0.2956
82.25	2.00368	-0.2962
82.3	2.13692	-0.2967
82.35	2.05457	-0.297
82.4	1.87036	-0.2971
82.45	1.78769	-0.2971
82.5	1.81905	-0.2971
82.55	2.06903	-0.2971
82.6	1.94498	-0.2971
82.65	1.85251	-0.2966
82.7	1.72949	-0.2966
82.75	1.85686	-0.2966
82.8	1.90059	-0.2966
82.85	1.83704	-0.2966
82.9	1.80795	-0.2966
82.95	1.78085	-0.2966
83.0	1.91086	-0.2966
83.05	1.96141	-0.2966
83.1	1.84041	-0.2967
83.15	1.83318	-0.297
83.2	1.77505	-0.2972
83.25	1.94051	-0.2977
83.3	1.75867	-0.2987
83.35	1.60214	-0.2994
83.4	1.39966	-0.3
83.45	1.35297	-0.3004
83.5	1.57777	-0.3009
83.55	1.44983	-0.3012
83.6	1.38135	-0.3017
83.65	1.55423	-0.3022
83.7	1.65794	-0.3028
83.75	1.52071	-0.303
83.8	1.33214	-0.303
83.85	1.56163	-0.303
83.9	1.5175	-0.3031
83.95	1.45676	-0.3031
84.0	1.38754	-0.3028
84.05	1.68707	-0.3025
84.1	1.65189	-0.3025
84.15	1.58293	-0.3025
84.2	1.48354	-0.3025
84.25	1.47	-0.3025
84.3	1.59927	-0.3025
84.35	1.61142	-0.3025
84.4	1.56737	-0.3027
84.45	1.43214	-0.303
84.5	1.49051	-0.3033
84.55	1.71793	-0.3041
84.6	1.89377	-0.3054
84.65	1.90208	-0.3063
84.7	1.88483	-0.3071
84.75	2.11679	-0.3078
84.8	2.41521	-0.3087
84.85	2.45039	-0.3092
84.9	2.45416	-0.3094
84.95	2.53381	-0.3097
85.0	2.77243	-0.3097
85.05	2.75656	-0.3095
85.1	2.80009	-0.3093
85.15	2.80573	-0.3093
85.2	2.95262	-0.3093
85.25	2.89508	-0.3092
85.3	2.78983	-0.3092
85.35	2.70927	-0.3092
85.4	2.82887	-0.3093
85.45	2.8396	-0.3098
85.5	3.04727	-0.3108
85.55	2.90744	-0.3122
85.6	2.92619	-0.3133
85.65	2.85283	-0.3141
85.7	2.76006	-0.3146
85.75	2.72144	-0.315
85.8	2.97282	-0.3157
85.85	3.28755	-0.3164
85.9	3.20387	-0.3169
85.95	2.97351	-0.3173
86.0	3.16257	-0.3175
86.05	3.20796	-0.3175
86.1	2.94281	-0.3174
86.15	2.86057	-0.3174
86.2	2.89377	-0.3174
86.25	3.05203	-0.3174
86.3	2.98254	-0.3173
86.35	2.84782	-0.3173
86.4	2.97064	-0.3173
86.45	3.12059	-0.3174
86.5	3.01012	-0.3177
86.55	2.70073	-0.3185
86.6	2.32362	-0.3196
86.65	2.43427	-0.3205
86.7	2.43068	-0.3217
86.75	2.40295	-0.3228
86.8	2.10696	-0.3236
86.85	2.06645	-0.3243
86.9	1.85683	-0.3251
86.95	1.71115	-0.3258
87.0	1.62669	-0.3265
87.05	1.53893	-0.3265
87.1	1.71152	-0.3263
87.15	1.74379	-0.3261
87.2	1.5903	-0.3261
87.25	1.55695	-0.3261
87.3	1.50311	-0.3261
87.35	1.69937	-0.3261
87.4	1.67978	-0.3261
87.45	1.61133	-0.3261
87.5	1.52516	-0.3265
87.55	1.47879	-0.3272
87.6	1.5631	-0.3283
87.65	1.50578	-0.3299
87.7	1.47855	-0.3316
87.75	1.45715	-0.3328
87.8	1.52258	-0.3335
87.85	1.74376	-0.3345
87.9	1.78651	-0.3355
87.95	1.76691	-0.3363
88.0	1.78571	-0.3372
88.05	2.02144	-0.3377
88.1	2.22414	-0.3378
88.15	2.15875	-0.3378
88.2	2.13953	-0.3373
88.25	2.09306	-0.3373
88.3	2.16502	-0.3373
88.35	2.28738	-0.3373
88.4	2.19608	-0.3373
88.45	2.09483	-0.3373
88.5	2.1347	-0.3374
88.55	2.2347	-0.338
88.6	2.32997	-0.3387
88.65	2.40556	-0.3396
88.7	2.30933	-0.3408
88.75	2.3918	-0.3415
88.8	2.36734	-0.3415
88.85	2.26353	-0.3415
88.9	2.15254	-0.3415
88.95	2.24797	-0.3415
89.0	2.34241	-0.3416
89.05	2.26567	-0.3416
89.1	2.20955	-0.3416
89.15	2.29968	-0.3416
89.2	2.43932	-0.3416
89.25	2.32178	-0.3416
89.3	2.18503	-0.3416
89.35	2.1577	-0.3416
89.4	2.33031	-0.3416
89.45	2.29503	-0.3416
89.5	2.24562	-0.3416
89.55	2.19142	-0.3416
89.6	2.37158	-0.3416
89.65	2.38559	-0.3414
89.7	2.18488	-0.3411
89.75	2.08546	-0.3411
89.8	2.14613	-0.3411
89.85	2.30984	-0.3411
89.9	2.21324	-0.3411
89.95	2.08455	-0.341
90.0	2.17996	-0.3408
90.05	2.32883	-0.3405
90.1	2.16367	-0.3404
90.15	2.10789	-0.3403
90.2	2.05019	-0.34
90.25	2.30217	-0.34
90.3	2.22971	-0.34
90.35	2.14633	-0.3399
90.4	2.03323	-0.3398
90.45	2.12854	-0.3397
90.5	2.30893	-0.3394
90.55	2.27892	-0.339
90.6	2.26158	-0.3384
90.65	2.21312	-0.3377
90.7	2.26042	-0.3374
90.75	2.14813	-0.3371
90.8	1.87442	-0.3369
90.85	1.69963	-0.3363
90.9	1.57199	-0.3353
90.95	1.57814	-0.3342
91.0	1.46877	-0.3332
91.05	1.37434	-0.332
91.1	1.20987	-0.331
91.15	1.26665	-0.3304
91.2	1.38371	-0.33
91.25	1.35335	-0.33
91.3	1.35277	-0.3301
91.35	1.29764	-0.3301
91.4	1.43716	-0.3301
91.45	1.53815	-0.3301
91.5	1.35313	-0.3301
91.55	1.23305	-0.3301
91.6	1.33714	-0.3301
91.65	1.39645	-0.3301
91.7	1.2804	-0.3301
91.75	1.56815	-0.3301
91.8	1.4912	-0.3301
91.85	1.38326	-0.3301
91.9	1.32295	-0.33
91.95	1.55501	-0.3297
92.0	1.3876	-0.3291
92.05	1.3774	-0.328
92.1	1.39034	-0.3264
92.15	1.76591	-0.325
92.2	1.80916	-0.3242
92.25	1.82497	-0.3236
92.3	2.26042	-0.3223
92.35	2.28625	-0.3208
92.4	2.33131	-0.3195
92.45	2.55804	-0.3181
92.5	2.7959	-0.3173
92.55	3.10876	-0.3166
92.6	3.26939	-0.3158
92.65	3.23633	-0.3155
92.7	3.10489	-0.3155
92.75	3.01828	-0.3155
92.8	3.08974	-0.3155
92.85	3.2278	-0.3155
92.9	3.14777	-0.3155
92.95	3.08102	-0.3157
93.0	3.19531	-0.3157
93.05	3.33401	-0.3157
93.1	3.13383	-0.3156
93.15	3.01711	-0.3153
93.2	2.88091	-0.3143
93.25	2.85738	-0.3127
93.3	2.8535	-0.3118
93.35	2.88568	-0.3115
93.4	2.9978	-0.3114
93.45	3.15314	-0.3112
93.5	3.16096	-0.3107
93.55	3.06175	-0.31
93.6	2.91277	-0.3094
93.65	2.74998	-0.3088
93.7	2.48993	-0.3083
93.75	2.33716	-0.308
93.8	2.17575	-0.3077
93.85	2.20805	-0.3072
93.9	2.05235	-0.3068
93.95	2.02243	-0.3068
94.0	1.97278	-0.307
94.05	2.11441	-0.307
94.1	2.21115	-0.307
94.15	2.11305	-0.307
94.2	1.97777	-0.307
94.25	1.92216	-0.307
94.3	2.07742	-0.307
94.35	2.11032	-0.307
94.4	2.04733	-0.3069
94.45	1.90144	-0.3068
94.5	2.01747	-0.3065
94.55	2.09956	-0.3059
94.6	1.9166	-0.3055
94.65	1.84697	-0.3052
94.7	1.73058	-0.3044
94.75	1.75781	-0.3033
94.8	1.64882	-0.3019
94.85	1.51215	-0.3008
94.9	1.43462	-0.2999
94.95	1.38545	-0.299
95.0	1.52077	-0.2983
95.05	1.73268	-0.2977
95.1	1.79771	-0.2967
95.15	1.89275	-0.2955
95.2	1.95595	-0.2948
95.25	2.0677	-0.2947
95.3	2.09384	-0.2946
95.35	2.04079	-0.2946
95.4	2.01161	-0.2946
95.45	2.00723	-0.2946
95.5	2.14238	-0.2946
95.55	2.18103	-0.2946
95.6	2.01622	-0.2946
95.65	1.93962	-0.2948
95.7	1.9261	-0.2948
95.75	2.18866	-0.2948
95.8	2.06659	-0.2947
95.85	2.02885	-0.2945
95.9	1.97334	-0.2941
95.95	2.19142	-0.2935
96.0	2.26537	-0.2932
96.05	2.84398	-0.2915
96.1	3.52721	-0.2901
96.15	3.7308	-0.2901
96.2	3.78329	-0.2901
96.25	3.68474	-0.29
96.3	3.58246	-0.29
96.35	3.66611	-0.2899
96.4	3.89049	-0.2898
96.45	4.03497	-0.2892
96.5	4.00729	-0.2888
96.55	3.97206	-0.2887
96.6	4.10199	-0.2885
96.65	4.09155	-0.2884
96.7	3.81349	-0.288
96.75	3.60539	-0.2873
96.8	3.58688	-0.2868
96.85	3.68051	-0.2868
96.9	3.57971	-0.2868
96.95	3.47424	-0.2867
97.0	3.59532	-0.2866
97.05	3.63593	-0.2857
97.1	3.63564	-0.2844
97.15	3.58028	-0.2842
97.2	3.56065	-0.2842
97.25	3.79683	-0.2842
97.3	3.73372	-0.2841
97.35	3.69473	-0.284
97.4	3.69398	-0.2839
97.45	3.9767	-0.2836
97.5	4.0822	-0.2833
97.55	4.04703	-0.2832
97.6	4.01137	-0.2831
97.65	4.37204	-0.2828
97.7	4.40398	-0.2829
97.75	4.25381	-0.283
97.8	4.12871	-0.283
97.85	4.13995	-0.283
97.9	4.26675	-0.283
97.95	4.20718	-0.2831
98.0	4.13815	-0.283
98.05	4.11497	-0.283
98.1	4.33321	-0.2829
98.15	4.45151	-0.2825
98.2	4.32529	-0.2817
98.25	4.00043	-0.2809
98.3	3.90303	-0.2806
98.35	3.9054	-0.2804
98.4	3.53429	-0.2799
98.45	2.95689	-0.2794
98.5	2.83612	-0.2787
98.55	2.50079	-0.2774
98.6	1.97572	-0.2762
98.65	1.80803	-0.2751
98.7	1.71886	-0.2742
98.75	1.84123	-0.274
98.8	1.76428	-0.274
98.85	1.72412	-0.2739
98.9	1.56551	-0.2736
98.95	1.60344	-0.2732
99.0	1.70122	-0.273
99.05	1.56874	-0.2728
99.1	1.49167	-0.2723
99.15	1.3855	-0.272
99.2	1.52118	-0.2719
99.25	1.5731	-0.2719
99.3	1.46413	-0.272
99.35	1.43674	-0.272
99.4	1.36281	-0.272
99.45	1.58624	-0.272
99.5	1.5829	-0.2722
99.55	1.47415	-0.2724
99.6	1.3187	-0.2724
99.65	1.48424	-0.2723
99.7	1.46053	-0.2719
99.75	1.36758	-0.2709
99.8	1.30209	-0.2701
99.85	1.58334	-0.2698
99.9	1.67574	-0.2686
99.95	1.81252	-0.2672
100.0	2.15312	-0.2665
100.05	2.18365	-0.2664
100.1	2.33142	-0.2663
100.15	2.80722	-0.2656
100.2	3.64717	-0.2643
100.25	4.20526	-0.2638
100.3	4.51315	-0.2635
100.35	4.81873	-0.2629
100.4	4.89426	-0.2623
100.45	4.85278	-0.262
100.5	4.92488	-0.2614
100.55	5.03162	-0.2608
100.6	4.97827	-0.2602
100.65	4.90401	-0.2598
100.7	5.18675	-0.259
100.75	5.30283	-0.2584
100.8	5.39465	-0.2578
100.85	5.48007	-0.2574
100.9	5.64827	-0.2575
100.95	5.56239	-0.2576
101.0	5.42838	-0.2577
101.05	5.60365	-0.2577
101.1	5.60388	-0.2577
101.15	5.49541	-0.2577
101.2	5.30823	-0.2578
101.25	5.59062	-0.2579
101.3	5.4608	-0.2579
101.35	5.33968	-0.2578
101.4	5.25278	-0.2577
101.45	6.01357	-0.257
101.5	6.3737	-0.2562
101.55	6.79547	-0.2556
101.6	7.18661	-0.2553
101.65	7.34412	-0.2551
101.7	7.61882	-0.2546
101.75	7.75771	-0.254
101.8	7.95271	-0.2535
101.85	7.64928	-0.2529
101.9	7.56712	-0.2528
101.95	7.44139	-0.2527
102.0	7.22568	-0.2522
102.05	6.75169	-0.2517
102.1	6.43188	-0.2517
102.15	6.44594	-0.2516
102.2	5.93327	-0.2512
102.25	5.67987	-0.2509
102.3	5.34634	-0.2506
102.35	5.11263	-0.2502
102.4	4.81386	-0.25
102.45	4.54021	-0.2495
102.5	3.74724	-0.2489
102.55	3.74721	-0.2486
102.6	3.64258	-0.2485
102.65	3.51062	-0.2484
102.7	3.27058	-0.248
102.75	3.39304	-0.2478
102.8	3.32738	-0.2477
102.85	3.05595	-0.2472
102.9	2.80746	-0.2471
102.95	2.85937	-0.247
103.0	2.9409	-0.2466
103.05	2.70857	-0.2465
103.1	2.61592	-0.2463
103.15	2.50325	-0.246
103.2	2.65102	-0.2459
103.25	2.54665	-0.246
103.3	2.4677	-0.2461
103.35	2.42949	-0.2462
103.4	2.57954	-0.2462
103.45	2.55092	-0.2462
103.5	2.49687	-0.2462
103.55	2.48366	-0.2462
103.6	2.71121	-0.2462
103.65	2.65227	-0.2461
103.7	2.50919	-0.2461
103.75	2.43153	-0.246
103.8	2.45578	-0.2457
103.85	2.12872	-0.2448
103.9	1.90785	-0.244
103.95	1.65106	-0.2436
104.0	1.74954	-0.2433
104.05	1.81175	-0.2429
104.1	1.61162	-0.2426
104.15	1.55801	-0.2422
104.2	1.48482	-0.2415
104.25	1.7005	-0.2411
104.3	1.76077	-0.2411
104.35	1.69872	-0.2409
104.4	1.63199	-0.2409
104.45	1.63773	-0.2405
104.5	1.85475	-0.2399
104.55	2.19408	-0.2397
104.6	2.18846	-0.2394
104.65	2.29506	-0.2391
104.7	2.39265	-0.2389
104.75	2.6642	-0.2386
104.8	2.90778	-0.2382
104.85	3.02718	-0.2378
104.9	3.11699	-0.2374
104.95	3.73802	-0.237
105.0	3.83089	-0.2367
105.05	3.85789	-0.2365
105.1	4.20361	-0.236
105.15	4.57596	-0.2355
105.2	4.84952	-0.2353
105.25	4.93039	-0.2351
105.3	5.00203	-0.2348
105.35	5.658	-0.2345
105.4	5.867	-0.2341
105.45	6.01036	-0.2337
105.5	6.40744	-0.2335
105.55	6.75597	-0.2332
105.6	7.04918	-0.233
105.65	7.64163	-0.2325
105.7	8.00641	-0.2322
105.75	8.08885	-0.2324
105.8	7.89955	-0.2325
105.85	7.8517	-0.2325
105.9	7.88078	-0.2325
105.95	8.03561	-0.2325
106.0	7.8755	-0.2325
106.05	7.78897	-0.2325
106.1	7.74542	-0.2324
106.15	7.89897	-0.2324
106.2	7.77905	-0.2323
106.25	7.70874	-0.2323
106.3	7.99831	-0.2323
106.35	8.26828	-0.2321
106.4	8.65332	-0.2319
106.45	9.14828	-0.2314
106.5	9.90811	-0.2308
106.55	11.12405	-0.2304
106.6	11.43866	-0.23
106.65	13.20738	-0.2295
106.7	13.8911	-0.229
106.75	14.4812	-0.2286
106.8	15.82564	-0.2282
106.85	17.01488	-0.2277
106.9	17.61926	-0.2275
106.95	18.01109	-0.2271
107.0	18.70567	-0.2268
107.05	19.08781	-0.2265
107.1	19.50198	-0.2262
107.15	20.26239	-0.2259
107.2	20.10481	-0.2256
107.25	20.04437	-0.2255
107.3	20.25531	-0.2252
107.35	20.16544	-0.2249
107.4	19.89345	-0.2247
107.45	19.96872	-0.2244
107.5	19.26862	-0.2241
107.55	18.77458	-0.2237
107.6	18.72469	-0.2235
107.65	18.03813	-0.2232
107.7	17.78943	-0.2231
107.75	17.15257	-0.2228
107.8	16.59546	-0.2225
107.85	15.85164	-0.2223
107.9	15.85796	-0.2221
107.95	15.62457	-0.222
108.0	14.90863	-0.2219
108.05	14.70206	-0.2217
108.1	13.34241	-0.2213
108.15	12.70471	-0.221
108.2	12.41745	-0.2208
108.25	12.03708	-0.2206
108.3	11.24051	-0.2203
108.35	11.01492	-0.2202
108.4	10.85115	-0.2201
108.45	10.53778	-0.22
108.5	10.09409	-0.2199
108.55	10.0354	-0.2196
108.6	8.85971	-0.2193
108.65	8.73955	-0.2192
108.7	8.58136	-0.2191
108.75	8.40558	-0.219
108.8	8.31694	-0.2192
108.85	8.63028	-0.2194
108.9	8.80869	-0.2194
108.95	8.85056	-0.2194
109.0	8.74156	-0.2195
109.05	8.7258	-0.2197
109.1	8.93231	-0.2197
109.15	9.02927	-0.2196
109.2	9.37817	-0.2196
109.25	9.24532	-0.2194
109.3	8.76041	-0.2191
109.35	8.42256	-0.219
109.4	7.87192	-0.2188
109.45	7.67589	-0.2185
109.5	5.35722	-0.2176
109.55	4.2695	-0.2167
109.6	3.58565	-0.216
109.65	3.43216	-0.2158
109.7	3.26703	-0.2157
109.75	2.87569	-0.2152
109.8	1.96599	-0.2145
109.85	1.95297	-0.2143
109.9	2.08859	-0.2143
109.95	1.95911	-0.2142
110.0	1.87965	-0.2141
110.05	1.7327	-0.2141
110.1	1.80104	-0.2139
110.15	1.87979	-0.2138
110.2	1.71999	-0.2137
110.25	1.67006	-0.2137
110.3	1.59326	-0.2136
110.35	1.71368	-0.2134
110.4	1.75255	-0.2128
110.45	1.7291	-0.2124
110.5	2.03709	-0.2119
110.55	2.52315	-0.2113
110.6	3.39917	-0.2105
110.65	5.75249	-0.2099
110.7	6.89156	-0.2094
110.75	7.54445	-0.2092
110.8	7.92874	-0.2091
110.85	8.53119	-0.2089
110.9	10.44421	-0.2086
110.95	10.45174	-0.2085
111.0	10.85802	-0.2085
111.05	10.89821	-0.2085
111.1	11.06271	-0.2083
111.15	13.38123	-0.2081
111.2	14.36656	-0.2079
111.25	15.59529	-0.2077
111.3	15.70941	-0.2077
111.35	15.72879	-0.2078
111.4	15.10989	-0.2079
111.45	15.189	-0.2079
111.5	15.30179	-0.2079
111.55	15.23575	-0.2079
111.6	14.96454	-0.208
111.65	14.91603	-0.2081
111.7	14.63824	-0.208
111.75	13.62021	-0.208
111.8	14.16338	-0.2079
111.85	14.57355	-0.2078
111.9	16.26462	-0.2076
111.95	17.42183	-0.2073
112.0	30.68251	-0.2061
112.05	35.20094	-0.2053
112.1	39.55194	-0.2048
112.15	46.91859	-0.2044
112.2	46.55089	-0.2044
112.25	54.00888	-0.204
112.3	59.94887	-0.2034
112.35	63.49736	-0.2033
112.4	66.56844	-0.203
112.45	77.28078	-0.2025
112.5	79.72054	-0.2023
112.55	81.17204	-0.202
112.6	87.56444	-0.2019
112.65	88.01674	-0.2019
112.7	88.49258	-0.2018
112.75	90.89203	-0.2017
112.8	95.33511	-0.2015
112.85	100.0	-0.2008
112.9	100.0	-0.2006
112.95	100.0	-0.2006
113.0	100.0	-0.2003
113.05	100.0	-0.1997
113.1	100.0	-0.1991
113.15	100.0	-0.1984
113.2	100.0	-0.1983
113.25	100.0	-0.1982
113.3	100.0	-0.1982
113.35	100.0	-0.1983
113.4	100.0	-0.1986
113.45	100.0	-0.1986
113.5	100.0	-0.1986
113.55	100.0	-0.1986
113.6	100.0	-0.1986
113.65	100.0	-0.1986
113.7	100.0	-0.1986
113.75	100.0	-0.1985
113.8	100.0	-0.1983
113.85	100.0	-0.1976
113.9	100.0	-0.1971
113.95	100.0	-0.197
114.0	100.0	-0.1969
114.05	100.0	-0.1969
114.1	100.0	-0.1969
114.15	100.0	-0.1969
114.2	100.0	-0.1966
114.25	100.0	-0.1963
114.3	100.0	-0.1959
114.35	100.0	-0.1956
114.4	100.0	-0.1953
114.45	100.0	-0.1947
114.5	100.0	-0.1943
114.55	100.0	-0.1937
114.6	100.0	-0.1929
114.65	100.0	-0.1925
114.7	100.0	-0.1924
114.75	100.0	-0.1922
114.8	100.0	-0.1917
114.85	100.0	-0.1915
114.9	100.0	-0.1912
114.95	100.0	-0.191
115.0	100.0	-0.1908
115.05	100.0	-0.1905
115.1	100.0	-0.19
115.15	100.0	-0.1899
115.2	100.0	-0.1899
115.25	100.0	-0.1898
115.3	100.0	-0.1896
115.35	100.0	-0.1893
115.4	100.0	-0.1893
115.45	100.0	-0.1895
115.5	100.0	-0.1896
115.55	100.0	-0.1896
115.6	100.0	-0.1896
115.65	100.0	-0.1896
115.7	100.0	-0.1896
115.75	100.0	-0.1896
115.8	100.0	-0.1896
115.85	100.0	-0.1894
115.9	100.0	-0.1892
115.95	100.0	-0.1887
116.0	100.0	-0.1881
116.05	100.0	-0.1879
116.1	100.0	-0.1877
116.15	100.0	-0.1872
116.2	100.0	-0.1867
116.25	100.0	-0.1866
116.3	100.0	-0.1861
116.35	100.0	-0.1856
116.4	100.0	-0.1851
116.45	100.0	-0.1849
116.5	100.0	-0.1845
116.55	100.0	-0.1841
116.6	100.0	-0.1836
116.65	100.0	-0.1834
116.7	100.0	-0.1831
116.75	100.0	-0.1827
116.8	100.0	-0.1824
116.85	100.0	-0.1822
116.9	100.0	-0.1819
116.95	100.0	-0.1817
117.0	100.0	-0.1815
117.05	100.0	-0.1814
117.1	100.0	-0.1813
117.15	100.0	-0.1813
117.2	100.0	-0.1813
117.25	100.0	-0.1814
117.3	100.0	-0.1816
117.35	100.0	-0.1816
117.4	100.0	-0.1816
117.45	100.0	-0.1816
117.5	100.0	-0.1816
117.55	100.0	-0.1816
117.6	100.0	-0.1816
117.65	100.0	-0.1816
117.7	100.0	-0.1815
117.75	100.0	-0.1814
117.8	100.0	-0.1812
117.85	100.0	-0.181
117.9	100.0	-0.1808
117.95	100.0	-0.1803
118.0	100.0	-0.18
118.05	100.0	-0.1798
118.1	100.0	-0.1795
118.15	100.0	-0.1789
118.2	100.0	-0.1781
118.25	100.0	-0.1777
118.3	100.0	-0.1773
118.35	100.0	-0.1771
118.4	100.0	-0.1768
118.45	100.0	-0.176
118.5	100.0	-0.1755
118.55	100.0	-0.1752
118.6	100.0	-0.1749
118.65	100.0	-0.1747
118.7	100.0	-0.1745
118.75	100.0	-0.1743
118.8	100.0	-0.174
118.85	100.0	-0.1738
118.9	100.0	-0.1736
118.95	100.0	-0.1733
119.0	100.0	-0.1731
119.05	100.0	-0.1729
119.1	100.0	-0.1729
119.15	100.0	-0.1729
119.2	100.0	-0.1731
119.25	100.0	-0.1731
119.3	100.0	-0.1731
119.35	100.0	-0.1731
119.4	100.0	-0.1731
119.45	100.0	-0.1731
119.5	100.0	-0.1731
119.55	100.0	-0.1731
119.6	100.0	-0.173
119.65	100.0	-0.1729
119.7	100.0	-0.1728
119.75	100.0	-0.1726
119.8	100.0	-0.1717
119.85	100.0	-0.171
119.9	100.0	-0.1707
119.95	100.0	-0.1704
120.0	100.0	-0.1699
120.05	99.04919	-0.1692
120.1	93.79308	-0.1686
120.15	80.49329	-0.168
120.2	76.07622	-0.1677
120.25	73.13702	-0.1675
120.3	69.7142	-0.1673
120.35	58.39673	-0.1667
120.4	51.02803	-0.166
120.45	36.91644	-0.1651
120.5	32.10103	-0.1643
120.55	28.24304	-0.1638
120.6	20.47383	-0.1631
120.65	16.81589	-0.1624
120.7	13.98535	-0.1621
120.75	11.73903	-0.1616
120.8	10.4955	-0.1614
120.85	10.15216	-0.1613
120.9	9.38408	-0.1612
120.95	8.90105	-0.1611
121.0	8.8942	-0.1611
121.05	8.82141	-0.1611
121.1	8.94287	-0.1611
121.15	9.08243	-0.1611
121.2	8.9881	-0.1611
121.25	8.83139	-0.1611
121.3	8.90083	-0.1612
121.35	9.26843	-0.1612
121.4	9.11743	-0.1612
121.45	9.1312	-0.1612
121.5	9.35748	-0.1612
121.55	9.05481	-0.161
121.6	6.21001	-0.1606
121.65	4.1187	-0.1596
121.7	2.27879	-0.1589
121.75	1.75543	-0.1584
121.8	1.62453	-0.1582
121.85	1.45206	-0.158
121.9	1.45045	-0.1576
121.95	1.23247	-0.157
122.0	1.4279	-0.1564
122.05	1.65729	-0.1562
122.1	1.6889	-0.156
122.15	1.61081	-0.1558
122.2	1.5085	-0.1557
122.25	1.47244	-0.1555
122.3	1.936	-0.155
122.35	2.48032	-0.1545
122.4	2.99178	-0.1541
122.45	3.01244	-0.1539
122.5	3.24553	-0.1536
122.55	4.70441	-0.1528
122.6	5.31509	-0.152
122.65	5.99559	-0.1515
122.7	6.4315	-0.1512
122.75	6.6835	-0.151
122.8	7.04909	-0.1506
122.85	7.36119	-0.1503
122.9	7.60574	-0.1501
122.95	7.68024	-0.1501
123.0	7.61909	-0.1503
123.05	7.38768	-0.1504
123.1	7.57927	-0.1504
123.15	7.57245	-0.1504
123.2	7.3315	-0.1504
123.25	7.32645	-0.1504
123.3	7.61397	-0.1504
123.35	7.4599	-0.1504
123.4	7.32616	-0.1504
123.45	7.68169	-0.1503
123.5	7.80421	-0.1501
123.55	7.82002	-0.1498
123.6	9.20312	-0.1487
123.65	10.18686	-0.1479
123.7	11.02469	-0.1473
123.75	11.29295	-0.1468
123.8	12.40594	-0.1462
123.85	12.59998	-0.1457
123.9	12.69391	-0.1455
123.95	13.38405	-0.1451
124.0	13.845	-0.1445
124.05	14.30954	-0.144
124.1	14.65584	-0.1436
124.15	14.88612	-0.1435
124.2	14.75563	-0.1434
124.25	14.76074	-0.1432
124.3	15.59612	-0.1427
124.35	15.90474	-0.1415
124.4	15.789	-0.1407
124.45	15.97311	-0.1407
124.5	15.97502	-0.1407
124.55	15.78558	-0.1407
124.6	15.832	-0.1407
124.65	15.99854	-0.1407
124.7	15.76259	-0.1407
124.75	15.65163	-0.1407
124.8	16.03265	-0.1407
124.85	15.85693	-0.1407
124.9	15.76105	-0.1408
124.95	15.89581	-0.1409
125.0	15.99422	-0.1409
125.05	15.92337	-0.1409
125.1	15.82846	-0.1409
125.15	16.10721	-0.1409
125.2	15.85789	-0.1408
125.25	15.68863	-0.1407
125.3	15.75188	-0.1407
125.35	15.8674	-0.1406
125.4	15.64421	-0.1404
125.45	15.36169	-0.1402
125.5	14.49376	-0.1394
125.55	13.2204	-0.1389
125.6	12.57594	-0.1387
125.65	12.80684	-0.1387
125.7	11.6364	-0.1383
125.75	10.04025	-0.1374
125.8	8.82217	-0.1367
125.85	8.46727	-0.1365
125.9	8.25346	-0.1363
125.95	5.92746	-0.1353
126.0	5.05806	-0.1345
126.05	4.86551	-0.1345
126.1	4.68399	-0.1345
126.15	4.73537	-0.1345
126.2	4.53247	-0.1344
126.25	3.94832	-0.1339
126.3	3.59386	-0.1336
126.35	3.41608	-0.1334
126.4	3.13995	-0.133
126.45	2.76636	-0.1326
126.5	2.1308	-0.1321
126.55	1.90466	-0.1316
126.6	1.80612	-0.1312
126.65	1.70323	-0.1311
126.7	1.65056	-0.1311
126.75	1.55876	-0.1311
126.8	1.68277	-0.1316
126.85	1.82999	-0.1316
126.9	1.80812	-0.1316
126.95	1.76562	-0.1316
127.0	1.70247	-0.1316
127.05	1.77284	-0.1316
127.1	1.93787	-0.1316
127.15	1.97037	-0.1315
127.2	1.76468	-0.1314
127.25	1.55632	-0.1311
127.3	1.45795	-0.1309
127.35	1.3197	-0.1301
127.4	1.03282	-0.1296
127.45	1.24825	-0.1291
127.5	0.97247	-0.1282
127.55	1.12366	-0.1274
127.6	1.18321	-0.1263
127.65	1.53807	-0.1252
127.7	1.95207	-0.1243
127.75	2.18317	-0.1241
127.8	2.18408	-0.124
127.85	2.18997	-0.1239
127.9	2.14713	-0.1237
127.95	2.68448	-0.1233
128.0	2.71628	-0.1231
128.05	2.66068	-0.123
128.1	2.72168	-0.1228
128.15	2.83099	-0.1227
128.2	2.91397	-0.1227
128.25	2.84096	-0.1227
128.3	2.70712	-0.1229
128.35	2.80144	-0.123
128.4	2.92017	-0.123
128.45	2.76126	-0.123
128.5	2.5873	-0.123
128.55	2.59508	-0.1231
128.6	2.81198	-0.123
128.65	2.69427	-0.123
128.7	2.64857	-0.123
128.75	2.79781	-0.1228
128.8	3.12207	-0.1223
128.85	3.26402	-0.1213
128.9	3.27318	-0.1207
128.95	3.28325	-0.1206
129.0	3.54874	-0.1205
129.05	3.50267	-0.1197
129.1	3.46176	-0.1183
129.15	3.55829	-0.1175
129.2	3.73213	-0.1173
129.25	3.70462	-0.1173
129.3	3.54208	-0.1172
129.35	3.50911	-0.1169
129.4	3.82399	-0.1168
129.45	3.84879	-0.1162
129.5	3.96045	-0.1151
129.55	4.33482	-0.1142
129.6	4.48402	-0.1139
129.65	4.63483	-0.1137
129.7	4.58817	-0.1136
129.75	4.56473	-0.1136
129.8	4.48427	-0.1137
129.85	4.65857	-0.1138
129.9	4.56096	-0.1138
129.95	4.37407	-0.1138
130.0	4.40741	-0.1138
130.05	4.64772	-0.1138
130.1	4.55486	-0.1138
130.15	4.49004	-0.1138
130.2	4.42746	-0.1138
130.25	4.93611	-0.1133
130.3	5.05211	-0.1124
130.35	4.9507	-0.112
130.4	5.00452	-0.1117
130.45	5.19482	-0.1111
130.5	4.83112	-0.1108
130.55	4.6503	-0.1105
130.6	4.42834	-0.1102
130.65	4.18692	-0.1096
130.7	3.52383	-0.1089
130.75	3.04424	-0.1085
130.8	3.16925	-0.1084
130.85	3.17441	-0.1082
130.9	2.82829	-0.108
130.95	2.67453	-0.1078
131.0	2.57997	-0.1077
131.05	2.54164	-0.1072
131.1	2.37259	-0.107
131.15	2.06006	-0.1067
131.2	2.02155	-0.1063
131.25	2.09137	-0.1061
131.3	1.92668	-0.1058
131.35	1.77541	-0.1053
131.4	1.68735	-0.1051
131.45	1.81969	-0.1052
131.5	1.91364	-0.1052
131.55	1.8969	-0.1053
131.6	1.80667	-0.1053
131.65	1.73656	-0.1053
131.7	1.76981	-0.1053
131.75	2.00035	-0.1053
131.8	1.89339	-0.1053
131.85	1.7218	-0.1053
131.9	1.69879	-0.1053
131.95	1.85228	-0.1052
132.0	1.70766	-0.1048
132.05	1.45158	-0.1039
132.1	1.20518	-0.1031
132.15	1.32751	-0.1025
132.2	1.07242	-0.1022
132.25	1.19092	-0.1019
132.3	1.19931	-0.1017
132.35	0.95787	-0.1014
132.4	1.27591	-0.1011
132.45	1.14482	-0.1008
132.5	1.00175	-0.1004
132.55	1.24512	-0.1
132.6	0.84924	-0.0994
132.65	1.01965	-0.0987
132.7	0.92108	-0.0982
132.75	0.80424	-0.0978
132.8	1.05246	-0.0974
132.85	0.89555	-0.097
132.9	0.84772	-0.0968
132.95	1.03316	-0.0966
133.0	0.89241	-0.0966
133.05	1.16098	-0.0966
133.1	1.01511	-0.0966
133.15	0.95479	-0.0966
133.2	1.15712	-0.0967
133.25	0.83604	-0.0967
133.3	1.04375	-0.0967
133.35	1.19695	-0.0967
133.4	0.89885	-0.0967
133.45	1.24986	-0.0967
133.5	0.84377	-0.0966
133.55	1.23012	-0.0966
133.6	0.83083	-0.0965
133.65	1.14305	-0.096
133.7	0.99939	-0.0952
133.75	1.00768	-0.0946
133.8	1.21927	-0.0942
133.85	1.09807	-0.0939
133.9	1.17699	-0.0934
133.95	1.58832	-0.0926
134.0	1.6371	-0.0922
134.05	1.59631	-0.092
134.1	1.76927	-0.0916
134.15	2.015	-0.0911
134.2	1.97305	-0.0908
134.25	1.96356	-0.0904
134.3	1.94273	-0.0899
134.35	2.11261	-0.0897
134.4	2.16798	-0.0896
134.45	2.04126	-0.0892
134.5	1.91673	-0.0889
134.55	1.88492	-0.0887
134.6	2.00055	-0.0883
134.65	1.98093	-0.0878
134.7	1.91069	-0.0875
134.75	1.80067	-0.0875
134.8	1.8671	-0.0874
134.85	1.9812	-0.0876
134.9	1.86154	-0.0878
134.95	1.8145	-0.0879
135.0	1.75284	-0.0879
135.05	1.97949	-0.0879
135.1	2.08159	-0.088
135.15	1.94426	-0.088
135.2	1.58517	-0.088
135.25	1.61943	-0.0879
135.3	1.79109	-0.0876
135.35	1.60666	-0.0871
135.4	1.48756	-0.0866
135.45	1.77499	-0.0858
135.5	1.9131	-0.0852
135.55	1.84163	-0.0851
135.6	1.79858	-0.0846
135.65	1.8094	-0.0843
135.7	1.96362	-0.0839
135.75	2.2065	-0.0835
135.8	2.15166	-0.0834
135.85	2.10843	-0.0831
135.9	2.17918	-0.0824
135.95	2.22362	-0.0819
136.0	1.93799	-0.0816
136.05	1.80339	-0.0812
136.1	1.58699	-0.0808
136.15	1.74945	-0.0807
136.2	1.74098	-0.0807
136.25	1.65462	-0.0808
136.3	1.5714	-0.081
136.35	1.52023	-0.081
136.4	1.62297	-0.081
136.45	1.72433	-0.081
136.5	1.5992	-0.081
136.55	1.53192	-0.081
136.6	1.81071	-0.081
136.65	1.70302	-0.0809
136.7	1.39554	-0.0807
136.75	1.53128	-0.0799
136.8	1.18968	-0.0787
136.85	1.02023	-0.0781
136.9	1.32211	-0.0777
136.95	1.13281	-0.0776
137.0	1.01279	-0.0771
137.05	1.26826	-0.0764
137.1	1.09982	-0.0757
137.15	1.24983	-0.0749
137.2	1.14847	-0.0742
137.25	0.93575	-0.0742
137.3	1.21735	-0.0742
137.35	1.11963	-0.0742
137.4	0.99428	-0.0745
137.45	1.28406	-0.0746
137.5	0.89777	-0.0746
137.55	1.28113	-0.0746
137.6	0.92351	-0.0746
137.65	1.16682	-0.0746
137.7	1.02998	-0.0745
137.75	0.98602	-0.0745
137.8	1.12978	-0.0744
137.85	0.89905	-0.0741
137.9	1.17676	-0.0738
137.95	0.87544	-0.0734
138.0	1.158	-0.0729
138.05	0.90051	-0.0726
138.1	0.869	-0.0725
138.15	0.93668	-0.0721
138.2	0.78625	-0.0719
138.25	1.00017	-0.0718
138.3	0.76746	-0.0714
138.35	1.05835	-0.071
138.4	0.79999	-0.0708
138.45	1.10835	-0.0704
138.5	0.87514	-0.0702
138.55	1.14319	-0.0702
138.6	0.93671	-0.0702
138.65	1.13963	-0.0702
138.7	1.02103	-0.0703
138.75	1.10315	-0.0704
138.8	1.11021	-0.0704
138.85	1.06636	-0.0704
138.9	1.16821	-0.0704
138.95	1.00784	-0.0704
139.0	1.19696	-0.0703
139.05	0.9568	-0.0703
139.1	1.20525	-0.0703
139.15	0.88844	-0.0699
139.2	1.20795	-0.0693
139.25	0.83894	-0.0691
139.3	1.21426	-0.0688
139.35	0.81708	-0.0683
139.4	1.20023	-0.0678
139.45	1.08049	-0.0674
139.5	1.10365	-0.0668
139.55	1.18852	-0.0661
139.6	0.91847	-0.0654
139.65	1.25632	-0.0646
139.7	0.89694	-0.0644
139.75	1.10204	-0.0644
139.8	1.03336	-0.0643
139.85	0.91011	-0.0642
139.9	1.17944	-0.0642
139.95	0.99588	-0.0641
140.0	0.9567	-0.064
140.05	1.13354	-0.0639
140.1	0.967	-0.0638
140.15	1.29657	-0.0637
140.2	1.1225	-0.0635
140.25	1.12865	-0.0635
140.3	1.30466	-0.0637
140.35	0.9241	-0.0638
140.4	1.2755	-0.0638
140.45	1.28995	-0.0638
140.5	1.1674	-0.0638
140.55	1.34889	-0.0638
140.6	1.00511	-0.0638
140.65	1.39172	-0.0638
140.7	0.93607	-0.0637
140.75	1.3578	-0.0637
140.8	0.97134	-0.0636
140.85	1.20416	-0.0632
140.9	1.18239	-0.0624
140.95	1.13393	-0.061
141.0	1.42735	-0.0595
141.05	1.258	-0.0593
141.1	1.12837	-0.0592
141.15	1.43433	-0.0592
141.2	1.25957	-0.0591
141.25	1.43965	-0.0589
141.3	1.43146	-0.0586
141.35	1.10361	-0.0585
141.4	1.38956	-0.0585
141.45	1.44316	-0.0584
141.5	1.08847	-0.0583
141.55	1.37276	-0.0582
141.6	1.23387	-0.0577
141.65	1.09816	-0.0574
141.7	1.42776	-0.0573
141.75	1.27156	-0.0569
141.8	1.16402	-0.0564
141.85	1.52605	-0.0562
141.9	1.36305	-0.0562
141.95	1.19373	-0.0562
142.0	1.49205	-0.0566
142.05	1.41937	-0.0567
142.1	1.16571	-0.0567
142.15	1.57782	-0.0567
142.2	1.07329	-0.0567
142.25	1.48679	-0.0567
142.3	1.08878	-0.0566
142.35	1.27843	-0.0564
142.4	1.20302	-0.0561
142.45	1.10376	-0.0545
142.5	1.22575	-0.053
142.55	0.96677	-0.0527
142.6	1.29953	-0.0527
142.65	1.02209	-0.0524
142.7	0.92278	-0.0519
142.75	1.04199	-0.0518
142.8	0.83086	-0.0518
142.85	1.0831	-0.0516
142.9	0.8138	-0.0515
142.95	1.12724	-0.0514
143.0	0.85434	-0.0508
143.05	1.14507	-0.0496
143.1	0.90166	-0.0485
143.15	1.0545	-0.0477
143.2	0.92827	-0.0475
143.25	0.96974	-0.0475
143.3	0.99504	-0.0476
143.35	0.82872	-0.0477
143.4	1.06931	-0.0477
143.45	0.78352	-0.0477
143.5	1.15251	-0.0477
143.55	0.84312	-0.0477
143.6	1.17236	-0.0477
143.65	0.86624	-0.0477
143.7	1.17673	-0.0477
143.75	0.90189	-0.0476
143.8	1.19609	-0.0475
143.85	0.91013	-0.0473
143.9	1.13805	-0.0468
143.95	0.89133	-0.0468
144.0	1.11336	-0.0468
144.05	0.87857	-0.0466
144.1	1.08261	-0.0462
144.15	0.83792	-0.0458
144.2	1.0493	-0.0457
144.25	0.81236	-0.0454
144.3	1.01797	-0.0447
144.35	0.75014	-0.0443
144.4	1.01369	-0.0439
144.45	0.6882	-0.0435
144.5	0.99023	-0.0431
144.55	0.64029	-0.0427
144.6	0.94479	-0.0424
144.65	0.57208	-0.0418
144.7	0.85556	-0.0411
144.75	0.78871	-0.0408
144.8	0.77272	-0.0407
144.85	0.79443	-0.0407
144.9	0.70007	-0.0407
144.95	0.79875	-0.0408
145.0	0.65669	-0.0409
145.05	0.85207	-0.0409
145.1	0.71568	-0.0409
145.15	0.89146	-0.0409
145.2	0.80264	-0.0409
145.25	0.87372	-0.0409
145.3	0.87218	-0.0409
145.35	0.55588	-0.0408
145.4	0.93256	-0.0406
145.45	0.59485	-0.0399
145.5	0.92853	-0.0398
145.55	0.65396	-0.0398
145.6	0.92244	-0.0397
145.65	0.70219	-0.0393
145.7	0.89682	-0.0381
145.75	0.73463	-0.0375
145.8	0.89369	-0.0373
145.85	0.72211	-0.0373
145.9	0.90375	-0.0372
145.95	0.7023	-0.0371
146.0	0.90355	-0.0369
146.05	0.67682	-0.0366
146.1	0.91425	-0.0364
146.15	0.64481	-0.0358
146.2	0.91428	-0.0353
146.25	0.60754	-0.0351
146.3	0.91219	-0.0349
146.35	0.58925	-0.0349
146.4	0.89662	-0.0349
146.45	0.59303	-0.0351
146.5	0.90619	-0.0351
146.55	0.91672	-0.0351
146.6	0.94774	-0.0351
146.65	0.62563	-0.0351
146.7	0.9832	-0.0351
146.75	0.65187	-0.0351
146.8	1.03799	-0.0351
146.85	0.6707	-0.035
146.9	1.06938	-0.0346
146.95	0.70166	-0.0337
147.0	1.08015	-0.0333
147.05	0.76439	-0.0325
147.1	1.04099	-0.0322
147.15	1.14124	-0.0316
147.2	0.90732	-0.0311
147.25	1.17706	-0.0307
147.3	0.80098	-0.0303
147.35	1.1443	-0.0301
147.4	0.81003	-0.0301
147.45	0.9873	-0.0301
147.5	0.9314	-0.0302
147.55	0.83025	-0.0303
147.6	1.01819	-0.0303
147.65	0.80917	-0.0303
147.7	1.1463	-0.0303
147.75	0.88824	-0.0303
147.8	1.22885	-0.0303
147.85	0.9552	-0.0303
147.9	1.25146	-0.0303
147.95	1.0029	-0.0301
148.0	0.84065	-0.0298
148.05	1.06528	-0.029
148.1	0.86646	-0.028
148.15	1.22905	-0.0271
148.2	1.04276	-0.0266
148.25	1.23531	-0.0259
148.3	1.08665	-0.0251
148.35	0.94557	-0.0245
148.4	1.17705	-0.0244
148.45	0.85336	-0.0244
148.5	1.0051	-0.0243
148.55	1.1712	-0.0243
148.6	0.86266	-0.0243
148.65	1.0014	-0.0243
148.7	0.99817	-0.0243
148.75	0.86826	-0.0243
148.8	1.17723	-0.0243
148.85	0.99316	-0.0243
148.9	0.85405	-0.0243
148.95	1.1053	-0.0243
149.0	0.86229	-0.0243
149.05	1.19814	-0.0243
149.1	0.97473	-0.0243
149.15	1.26135	-0.0242
149.2	1.05626	-0.0241
149.25	1.21553	-0.024
149.3	1.16522	-0.0236
149.35	1.03699	-0.0233
149.4	1.27887	-0.023
149.45	0.90685	-0.0223
149.5	1.1871	-0.0212
149.55	1.13757	-0.0206
149.6	0.91176	-0.0201
149.65	1.16035	-0.0193
149.7	0.79495	-0.019
149.75	1.05156	-0.0186
149.8	0.88884	-0.0181
149.85	0.82458	-0.0178
149.9	0.99399	-0.0177
149.95	0.83792	-0.0176
150.0	1.11781	-0.0176
150.05	0.96786	-0.0176
150.1	0.81876	-0.0176
150.15	1.12622	-0.0176
150.2	0.92809	-0.0176
150.25	1.1925	-0.0176
150.3	1.00188	-0.0176
150.35	1.1423	-0.0176
150.4	1.08943	-0.0176
150.45	0.98643	-0.0174
150.5	1.15634	-0.0165
150.55	0.79594	-0.0155
150.6	1.10422	-0.0144
150.65	0.7744	-0.0137
150.7	0.93501	-0.0128
150.75	1.08217	-0.0119
150.8	0.75874	-0.0115
150.85	1.03824	-0.0112
150.9	0.84041	-0.0111
150.95	0.8183	-0.011
151.0	0.88333	-0.0106
151.05	0.70116	-0.0101
151.1	0.94612	-0.0098
151.15	0.7805	-0.0098
151.2	0.97813	-0.0098
151.25	0.88069	-0.0099
151.3	0.68633	-0.0099
151.35	0.96291	-0.0099
151.4	0.75652	-0.0099
151.45	1.03864	-0.0099
151.5	0.81114	-0.0099
151.55	1.06372	-0.0099
151.6	0.80928	-0.0099
151.65	1.05324	-0.0098
151.7	0.81847	-0.0098
151.75	1.06233	-0.0096
151.8	0.85645	-0.0087
151.85	1.08986	-0.0082
151.9	0.89731	-0.008
151.95	1.09247	-0.0074
152.0	0.96355	-0.0063
152.05	1.00644	-0.0058
152.1	1.03381	-0.0057
152.15	0.85532	-0.0056
152.2	1.09296	-0.0054
152.25	0.76109	-0.0052
152.3	1.08972	-0.0048
152.35	0.79707	-0.0045
152.4	0.97546	-0.0044
152.45	1.1391	-0.0045
152.5	0.81078	-0.0045
152.55	1.16656	-0.0045
152.6	0.80403	-0.0045
152.65	1.09174	-0.0045
152.7	0.82195	-0.0045
152.75	0.99074	-0.0045
152.8	0.85612	-0.0045
152.85	0.90327	-0.0045
152.9	0.8577	-0.0044
152.95	0.78931	-0.0044
153.0	0.77248	-0.0044
153.05	0.68007	-0.0041
153.1	0.83273	-0.0033
153.15	0.75049	-0.0029
153.2	0.96384	-0.0022
153.25	0.81529	-0.0017
153.3	1.14229	-0.0014
153.35	0.92513	-0.001
153.4	1.25945	-0.0004875
153.45	1.06152	-0.00016875
153.5	1.21098	1.0709e-15
153.55	1.21597	1.0709e-15
153.6	1.00638	1.0709e-15
153.65	1.29367	-9.375e-06
153.7	1.10532	-3.75e-05
153.75	1.25635	-3.75e-05
153.8	1.23952	-3.75e-05
153.85	1.16795	-3.75e-05
153.9	1.31757	-3.75e-05
153.95	1.01987	-3.75e-05
154.0	1.35062	1.0709e-15
154.05	0.90974	1.0709e-15
154.1	1.32867	1.0709e-15
154.15	0.90799	1.0709e-15
154.2	1.21756	1.0709e-15
154.25	0.97896	1.0709e-15
154.3	1.0517	1.0709e-15
154.35	1.34525	1.0709e-15
154.4	0.92418	1.0709e-15
154.45	1.32779	1.0709e-15
154.5	0.91113	1.0709e-15
154.55	1.20667	1.0709e-15
154.6	1.00024	1.0709e-15
154.65	1.00977	1.0709e-15
154.7	1.10106	1.0709e-15
154.75	1.08958	1.0709e-15
154.8	1.09488	1.0709e-15
154.85	1.05257	1.0709e-15
154.9	1.12033	1.0709e-15
154.95	0.93768	1.0709e-15
155.0	1.26466	1.0709e-15
155.05	1.07811	1.0709e-15
155.1	1.2886	1.0709e-15
155.15	1.21613	1.0709e-15
155.2	0.99895	1.0709e-15
155.25	1.32303	1.0709e-15
155.3	1.12115	1.0709e-15
155.35	1.25549	1.0709e-15
155.4	1.26775	1.0709e-15
155.45	1.06525	1.0709e-15
155.5	1.34258	1.0709e-15
155.55	0.93037	1.0709e-15
155.6	1.25519	1.0709e-15
155.65	1.02339	1.0709e-15
155.7	1.00226	1.0709e-15
155.75	1.32918	1.0709e-15
155.8	0.96109	1.0709e-15
155.85	1.1468	1.0709e-15
155.9	1.0882	1.0709e-15
155.95	0.94699	1.0709e-15
156.0	1.21495	1.0709e-15
156.05	0.9828	1.0709e-15
156.1	1.32867	1.0709e-15
156.15	1.10674	1.0709e-15
156.2	1.32162	1.0709e-15
156.25	1.23495	1.0709e-15
156.3	0.99127	1.0709e-15
156.35	1.32962	1.0709e-15
156.4	1.11256	1.0709e-15
156.45	1.28571	1.0709e-15
156.5	1.26236	1.0709e-15
156.55	1.05849	1.0709e-15
156.6	1.35941	1.0709e-15
156.65	0.93251	1.0709e-15
156.7	1.26979	1.0709e-15
156.75	1.13942	1.0709e-15
156.8	1.13135	1.0709e-15
156.85	1.12909	1.0709e-15
156.9	1.17166	1.0709e-15
156.95	1.19653	1.0709e-15
157.0	1.19525	1.0709e-15
157.05	1.16924	1.0709e-15
157.1	1.16434	1.0709e-15
157.15	1.15334	1.0709e-15
157.2	1.16727	1.0709e-15
157.25	1.19833	1.0709e-15
157.3	1.20164	1.0709e-15
157.35	1.16959	1.0709e-15
157.4	1.1633	1.0709e-15
157.45	1.15086	1.0709e-15
157.5	1.17867	1.0709e-15
157.55	1.20984	1.0709e-15
157.6	1.19934	1.0709e-15
157.65	1.16531	1.0709e-15
157.7	1.15384	1.0709e-15
157.75	1.13797	1.0709e-15
157.8	1.19052	1.0709e-15
157.85	1.20749	1.0709e-15
157.9	1.18141	1.0709e-15
157.95	1.15805	1.0709e-15
158.0	1.14488	1.0709e-15
158.05	1.13681	1.0709e-15
158.1	1.20857	1.0709e-15
158.15	1.19833	1.0709e-15
158.2	1.17354	1.0709e-15
158.25	1.15465	1.0709e-15
158.3	1.14084	1.0709e-15
158.35	1.15289	1.0709e-15
158.4	1.21027	1.0709e-15
158.45	1.18442	1.0709e-15
158.5	1.17119	1.0709e-15
158.55	1.15533	1.0709e-15
158.6	1.14706	1.0709e-15
158.65	1.17451	1.0709e-15
158.7	1.20796	1.0709e-15
158.75	1.18571	1.0709e-15
158.8	1.1803	1.0709e-15
158.85	1.15417	1.0709e-15
158.9	1.16048	1.0709e-15
158.95	1.19556	1.0709e-15
159.0	1.2028	1.0709e-15
159.05	1.18463	1.0709e-15
159.1	1.17293	1.0709e-15
159.15	1.15039	1.0709e-15
159.2	1.19383	1.0709e-15
159.25	1.24408	1.0709e-15
159.3	1.18121	1.0709e-15
159.35	1.16058	1.0709e-15
159.4	1.12144	1.0709e-15
159.45	1.2025	1.0709e-15
159.5	1.28946	1.0709e-15
159.55	1.18173	1.0709e-15
159.6	1.12555	1.0709e-15
159.65	1.04114	1.0709e-15
159.7	1.29942	1.0709e-15
159.75	1.17206	1.0709e-15
159.8	1.06332	1.0709e-15
159.85	1.36987	1.0709e-15
159.9	1.35158	1.0709e-15
159.95	1.61612	1.0709e-15
160.0	1.34494	1.0709e-15
160.05	1.61987	1.0709e-15
160.1	1.21472	1.0709e-15
160.15	1.62546	1.0709e-15
160.2	1.48627	1.0709e-15
160.25	1.60425	1.0709e-15
160.3	1.6601	1.0709e-15
160.35	1.41837	1.0709e-15
160.4	1.82613	1.0709e-15
160.45	1.33717	1.0709e-15
160.5	1.71831	1.0709e-15
160.55	1.06224	1.0709e-15
160.6	1.30742	1.0709e-15
160.65	1.026	1.0709e-15
160.7	1.32451	1.0709e-15
160.75	1.14211	1.0709e-15
160.8	1.18626	1.0709e-15
160.85	1.3197	1.0709e-15
160.9	1.13559	1.0709e-15
160.95	1.1619	1.0709e-15
161.0	1.31674	1.0709e-15
161.05	0.98923	1.0709e-15
161.1	1.13339	1.0709e-15
161.15	1.13399	1.0709e-15
161.2	0.99924	1.0709e-15
161.25	1.09947	1.0709e-15
161.3	1.15076	1.0709e-15
161.35	1.04256	1.0709e-15
161.4	1.30589	1.0709e-15
161.45	1.21002	1.0709e-15
161.5	1.1145	1.0709e-15
161.55	1.15829	1.0709e-15
161.6	1.30257	1.0709e-15
161.65	1.08167	1.0709e-15
161.7	1.03535	1.0709e-15
161.75	1.20012	1.0709e-15
161.8	1.15062	1.0709e-15
161.85	1.07083	1.0709e-15
161.9	1.26425	1.0709e-15
161.95	1.26799	1.0709e-15
162.0	1.17545	1.0709e-15
162.05	1.79507	1.0709e-15
162.1	1.21921	1.0709e-15
162.15	1.17847	1.0709e-15
162.2	1.29948	1.0709e-15
162.25	1.01036	1.0709e-15
162.3	1.06929	1.0709e-15
