Time (s)	Light Intensity (% of scale max)	Position (m)
0.0	0.0497	0.0
0.05	0.04964	0.0
0.1	0.04956	0.0
0.15	0.04935	0.0
0.2	0.04982	0.0
0.25	0.04961	0.0
0.3	0.04953	0.0
0.35	0.04951	0.0
0.4	0.04944	0.0
0.45	0.04935	0.0
0.5	0.04901	0.0
0.55	0.04935	0.0
0.6	0.04941	0.0
0.65	0.04987	0.0
0.7	0.04984	0.0
0.75	0.04977	0.0
0.8	0.05013	0.0
0.85	0.05031	0.0
0.9	0.05074	0.0
0.95	0.05087	0.0
1.0	0.0509	0.0
1.05	0.05104	0.0
1.1	0.05124	0.0
1.15	0.05132	0.0
1.2	0.05173	0.0
1.25	0.0519	0.0
1.3	0.05193	0.0
1.35	0.05196	0.0
1.4	0.05173	0.0
1.45	0.0517	0.0
1.5	0.05162	0.0
1.55	0.05174	0.0
1.6	0.05168	0.0
1.65	0.05167	0.0
1.7	0.05153	0.0
1.75	0.05144	0.0
1.8	0.05103	0.0
1.85	0.05147	-5.625e-05
1.9	0.05119	-0.0006375
1.95	0.05138	-0.0017
2.0	0.05199	-0.003
2.05	0.05159	-0.0035
2.1	0.05121	-0.0042
2.15	0.05101	-0.0047
2.2	0.05069	-0.0056
2.25	0.05087	-0.0066
2.3	0.05109	-0.0073
2.35	0.05115	-0.0075
2.4	0.05057	-0.0081
2.45	0.05038	-0.009
2.5	0.05013	-0.0095
2.55	0.04993	-0.0101
2.6	0.04955	-0.0111
2.65	0.04907	-0.0122
2.7	0.04924	-0.0133
2.75	0.0488	-0.0142
2.8	0.04869	-0.0148
2.85	0.04874	-0.0151
2.9	0.04842	-0.0151
2.95	0.04857	-0.0149
3.0	0.04779	-0.0148
3.05	0.0479	-0.0148
3.1	0.04776	-0.0148
3.15	0.0477	-0.0148
3.2	0.04707	-0.0148
3.25	0.04733	-0.0148
3.3	0.04762	-0.0149
3.35	0.04752	-0.0152
3.4	0.04752	-0.0159
3.45	0.04732	-0.0175
3.5	0.04736	-0.0192
3.55	0.04776	-0.0205
3.6	0.04813	-0.0214
3.65	0.04829	-0.0223
3.7	0.04832	-0.0231
3.75	0.04822	-0.0239
3.8	0.04851	-0.0246
3.85	0.04887	-0.0256
3.9	0.04951	-0.0262
3.95	0.04959	-0.0267
4.0	0.04987	-0.0271
4.05	0.04997	-0.0272
4.1	0.05003	-0.0275
4.15	0.04996	-0.028
4.2	0.04967	-0.0285
4.25	0.04973	-0.0291
4.3	0.04976	-0.0299
4.35	0.04982	-0.0306
4.4	0.04993	-0.0307
4.45	0.04996	-0.0306
4.5	0.05008	-0.0303
4.55	0.05028	-0.0303
4.6	0.05016	-0.0303
4.65	0.05026	-0.0303
4.7	0.05016	-0.0303
4.75	0.05013	-0.0303
4.8	0.05035	-0.0303
4.85	0.05023	-0.0303
4.9	0.05009	-0.0303
4.95	0.05025	-0.0306
5.0	0.05002	-0.0308
5.05	0.05074	-0.0317
5.1	0.05069	-0.0332
5.15	0.05009	-0.0341
5.2	0.04921	-0.0353
5.25	0.04961	-0.0365
5.3	0.04945	-0.0377
5.35	0.04913	-0.0387
5.4	0.04858	-0.0395
5.45	0.04831	-0.0406
5.5	0.04829	-0.0413
5.55	0.04814	-0.0423
5.6	0.04741	-0.0432
5.65	0.04761	-0.0439
5.7	0.04753	-0.0445
5.75	0.04735	-0.0458
5.8	0.04718	-0.0472
5.85	0.04741	-0.0483
5.9	0.04732	-0.0488
5.95	0.04741	-0.0491
6.0	0.04747	-0.0492
6.05	0.04761	-0.0492
6.1	0.04732	-0.0489
6.15	0.04733	-0.0486
6.2	0.04762	-0.0485
6.25	0.04745	-0.0485
6.3	0.04749	-0.0485
6.35	0.0479	-0.0485
6.4	0.04756	-0.0485
6.45	0.04739	-0.0485
6.5	0.04729	-0.0485
6.55	0.04744	-0.0485
6.6	0.04767	-0.0485
6.65	0.04753	-0.0485
6.7	0.04749	-0.0486
6.75	0.04742	-0.0487
6.8	0.04742	-0.0487
6.85	0.04723	-0.049
6.9	0.04716	-0.0491
6.95	0.0475	-0.0493
7.0	0.04712	-0.0496
7.05	0.04739	-0.05
7.1	0.04747	-0.0503
7.15	0.04761	-0.0508
7.2	0.04768	-0.0515
7.25	0.04819	-0.0524
7.3	0.04858	-0.0532
7.35	0.04929	-0.0543
7.4	0.04993	-0.0548
7.45	0.05054	-0.056
7.5	0.0506	-0.0569
7.55	0.05025	-0.0578
7.6	0.0509	-0.059
7.65	0.0517	-0.0603
7.7	0.05194	-0.061
7.75	0.05222	-0.0611
7.8	0.05212	-0.0611
7.85	0.05196	-0.0612
7.9	0.05257	-0.0617
7.95	0.0524	-0.0621
8.0	0.05211	-0.0624
8.05	0.05226	-0.0624
8.1	0.05205	-0.0624
8.15	0.0518	-0.0621
8.2	0.05139	-0.062
8.25	0.05142	-0.062
8.3	0.05165	-0.062
8.35	0.05132	-0.062
8.4	0.0513	-0.062
8.45	0.05139	-0.062
8.5	0.05136	-0.062
8.55	0.0513	-0.062
8.6	0.05154	-0.062
8.65	0.05153	-0.062
8.7	0.05188	-0.062
8.75	0.05168	-0.062
8.8	0.05174	-0.062
8.85	0.05156	-0.062
8.9	0.05177	-0.062
8.95	0.05162	-0.0621
9.0	0.05176	-0.0623
9.05	0.05191	-0.0624
9.1	0.05177	-0.0624
9.15	0.05173	-0.0624
9.2	0.05214	-0.0626
9.25	0.0519	-0.0627
9.3	0.05171	-0.063
9.35	0.05145	-0.0636
9.4	0.05051	-0.0642
9.45	0.05035	-0.065
9.5	0.05013	-0.0658
9.55	0.05	-0.0663
9.6	0.05003	-0.0671
9.65	0.04958	-0.0678
9.7	0.04924	-0.0685
9.75	0.04918	-0.069
9.8	0.04857	-0.0694
9.85	0.04826	-0.0701
9.9	0.04753	-0.0708
9.95	0.04709	-0.0717
10.0	0.04665	-0.0723
10.05	0.04645	-0.0727
10.1	0.04649	-0.0732
10.15	0.04643	-0.0736
10.2	0.04613	-0.074
10.25	0.04646	-0.0748
10.3	0.04625	-0.0754
10.35	0.04654	-0.0759
10.4	0.04657	-0.0765
10.45	0.04675	-0.077
10.5	0.04689	-0.0777
10.55	0.04749	-0.0785
10.6	0.04765	-0.079
10.65	0.04799	-0.0796
10.7	0.04872	-0.0802
10.75	0.04933	-0.0807
10.8	0.04982	-0.0809
10.85	0.05042	-0.0812
10.9	0.05081	-0.0815
10.95	0.05138	-0.0817
11.0	0.05147	-0.0817
11.05	0.0513	-0.0817
11.1	0.05127	-0.0817
11.15	0.05165	-0.0816
11.2	0.05348	-0.0814
11.25	0.05396	-0.0813
11.3	0.05396	-0.0813
11.35	0.05368	-0.0813
11.4	0.05389	-0.0813
11.45	0.05403	-0.0813
11.5	0.05388	-0.0813
11.55	0.05405	-0.0813
11.6	0.05397	-0.0813
11.65	0.05365	-0.0813
11.7	0.05418	-0.0813
11.75	0.05399	-0.0813
11.8	0.05408	-0.0813
11.85	0.05406	-0.0813
11.9	0.05411	-0.0813
11.95	0.05391	-0.0813
12.0	0.05421	-0.0813
12.05	0.05403	-0.0815
12.1	0.05374	-0.0815
12.15	0.05396	-0.0815
12.2	0.05383	-0.0815
12.25	0.05389	-0.0815
12.3	0.0535	-0.0817
12.35	0.05327	-0.0817
12.4	0.05339	-0.0819
12.45	0.05309	-0.0823
12.5	0.05408	-0.0833
12.55	0.05463	-0.0845
12.6	0.05458	-0.0855
12.65	0.0547	-0.0864
12.7	0.05524	-0.0875
12.75	0.05608	-0.0887
12.8	0.06093	-0.0901
12.85	0.06139	-0.0911
12.9	0.06085	-0.0919
12.95	0.05936	-0.0929
13.0	0.05676	-0.094
13.05	0.05406	-0.0945
13.1	0.05302	-0.0952
13.15	0.05217	-0.0959
13.2	0.05147	-0.0963
13.25	0.05119	-0.0967
13.3	0.05099	-0.0973
13.35	0.05037	-0.0981
13.4	0.05006	-0.0988
13.45	0.04962	-0.0994
13.5	0.04921	-0.1003
13.55	0.04839	-0.1012
13.6	0.04739	-0.1018
13.65	0.04698	-0.1021
13.7	0.04707	-0.1023
13.75	0.04694	-0.1024
13.8	0.04636	-0.1029
13.85	0.0461	-0.1033
13.9	0.04639	-0.1034
13.95	0.04594	-0.1037
14.0	0.0459	-0.104
14.05	0.04634	-0.1043
14.1	0.04601	-0.1043
14.15	0.04626	-0.1044
14.2	0.04628	-0.1045
14.25	0.04611	-0.1044
14.3	0.04617	-0.1042
14.35	0.04636	-0.1039
14.4	0.04637	-0.1039
14.45	0.04657	-0.1038
14.5	0.04633	-0.1038
14.55	0.04643	-0.1038
14.6	0.04626	-0.1038
14.65	0.04646	-0.1038
14.7	0.04648	-0.1038
14.75	0.04654	-0.1038
14.8	0.04636	-0.1038
14.85	0.04634	-0.1038
14.9	0.04636	-0.1038
14.95	0.04645	-0.1038
15.0	0.04657	-0.1038
15.05	0.04655	-0.1038
15.1	0.04633	-0.1039
15.15	0.04666	-0.1039
15.2	0.04643	-0.1039
15.25	0.0463	-0.1042
15.3	0.04652	-0.1043
15.35	0.04639	-0.1046
15.4	0.04665	-0.1052
15.45	0.0472	-0.1055
15.5	0.04755	-0.1061
15.55	0.04837	-0.1067
15.6	0.04968	-0.1071
15.65	0.05113	-0.1077
15.7	0.05255	-0.1085
15.75	0.0547	-0.1092
15.8	0.05849	-0.1098
15.85	0.06049	-0.1102
15.9	0.06305	-0.1108
15.95	0.06493	-0.1114
16.0	0.06732	-0.112
16.05	0.06786	-0.1124
16.1	0.06822	-0.1127
16.15	0.06836	-0.113
16.2	0.06868	-0.1135
16.25	0.06885	-0.1137
16.3	0.06886	-0.1138
16.35	0.06902	-0.114
16.4	0.06876	-0.1143
16.45	0.06873	-0.1149
16.5	0.06851	-0.115
16.55	0.06866	-0.1152
16.6	0.06876	-0.1155
16.65	0.06903	-0.1159
16.7	0.06934	-0.1162
16.75	0.06935	-0.1167
16.8	0.07014	-0.1171
16.85	0.07053	-0.1173
16.9	0.07043	-0.1175
16.95	0.07085	-0.1178
17.0	0.0726	-0.1184
17.05	0.07332	-0.1188
17.1	0.07457	-0.1193
17.15	0.07596	-0.1197
17.2	0.07751	-0.12
17.25	0.07845	-0.1203
17.3	0.08031	-0.121
17.35	0.0818	-0.1215
17.4	0.08226	-0.1216
17.45	0.0822	-0.1216
17.5	0.08223	-0.1216
17.55	0.08232	-0.1217
17.6	0.08322	-0.122
17.65	0.08368	-0.1224
17.7	0.08334	-0.1226
17.75	0.0831	-0.1226
17.8	0.08301	-0.1226
17.85	0.08308	-0.1227
17.9	0.08311	-0.1228
17.95	0.08177	-0.1233
18.0	0.08009	-0.1239
18.05	0.08026	-0.124
18.1	0.0799	-0.124
18.15	0.0798	-0.1241
18.2	0.07899	-0.1243
18.25	0.07706	-0.1246
18.3	0.07469	-0.1249
18.35	0.07463	-0.1249
18.4	0.07468	-0.1249
18.45	0.07399	-0.1251
18.5	0.06645	-0.1258
18.55	0.06409	-0.1264
18.6	0.06361	-0.1264
18.65	0.06339	-0.1265
18.7	0.06342	-0.1265
18.75	0.06348	-0.1265
18.8	0.06264	-0.1266
18.85	0.06023	-0.1271
18.9	0.05901	-0.1272
18.95	0.0587	-0.1273
19.0	0.05881	-0.1273
19.05	0.05887	-0.1273
19.1	0.05873	-0.1273
19.15	0.05914	-0.1273
19.2	0.05869	-0.1272
19.25	0.05745	-0.1268
19.3	0.0562	-0.1267
19.35	0.056	-0.1267
19.4	0.05623	-0.1267
19.45	0.05624	-0.1267
19.5	0.05632	-0.1267
19.55	0.05627	-0.1267
19.6	0.05603	-0.1267
19.65	0.05629	-0.1267
19.7	0.05669	-0.1267
19.75	0.05634	-0.1268
19.8	0.05608	-0.1269
19.85	0.05649	-0.1274
19.9	0.05693	-0.1276
19.95	0.05408	-0.1281
20.0	0.05264	-0.1286
20.05	0.05119	-0.1291
20.1	0.05042	-0.1295
20.15	0.04865	-0.1298
20.2	0.04727	-0.1305
20.25	0.04671	-0.1312
20.3	0.04662	-0.1315
20.35	0.04608	-0.1318
20.4	0.04591	-0.132
20.45	0.04597	-0.1322
20.5	0.04596	-0.1326
20.55	0.04695	-0.1333
20.6	0.0473	-0.1338
20.65	0.04788	-0.134
20.7	0.04839	-0.1343
20.75	0.05055	-0.1347
20.8	0.05177	-0.135
20.85	0.05237	-0.1351
20.9	0.05356	-0.1355
20.95	0.05708	-0.1358
21.0	0.0573	-0.1359
21.05	0.0578	-0.1359
21.1	0.05927	-0.1363
21.15	0.07077	-0.1368
21.2	0.07837	-0.1374
21.25	0.08081	-0.1376
21.3	0.0835	-0.1379
21.35	0.09966	-0.1386
21.4	0.10979	-0.1395
21.45	0.11577	-0.14
21.5	0.11906	-0.1402
21.55	0.12361	-0.1406
21.6	0.12724	-0.141
21.65	0.12958	-0.1412
21.7	0.13811	-0.1417
21.75	0.14012	-0.1421
21.8	0.14091	-0.1422
21.85	0.14136	-0.1422
21.9	0.14406	-0.1424
21.95	0.14835	-0.1429
22.0	0.15121	-0.1433
22.05	0.15182	-0.1435
22.1	0.15228	-0.1435
22.15	0.15279	-0.1436
22.2	0.15318	-0.1437
22.25	0.15457	-0.1438
22.3	0.15526	-0.1439
22.35	0.1564	-0.1443
22.4	0.1573	-0.1447
22.45	0.15739	-0.1448
22.5	0.15714	-0.1449
22.55	0.15746	-0.145
22.6	0.15797	-0.1451
22.65	0.15785	-0.1452
22.7	0.15793	-0.1453
22.75	0.15768	-0.1454
22.8	0.15851	-0.1456
22.85	0.1608	-0.1461
22.9	0.16193	-0.1465
22.95	0.16223	-0.1465
23.0	0.16251	-0.1466
23.05	0.1627	-0.1468
23.1	0.16278	-0.147
23.15	0.1626	-0.1474
23.2	0.16241	-0.1477
23.25	0.16185	-0.1479
23.3	0.16124	-0.1481
23.35	0.16046	-0.1484
23.4	0.15982	-0.1486
23.45	0.15964	-0.1487
23.5	0.15904	-0.1489
23.55	0.15836	-0.1492
23.6	0.15782	-0.1492
23.65	0.15848	-0.1493
23.7	0.15814	-0.1493
23.75	0.15828	-0.1493
23.8	0.15872	-0.1493
23.85	0.15781	-0.1493
23.9	0.15828	-0.1493
23.95	0.15781	-0.1494
24.0	0.15761	-0.1494
24.05	0.15736	-0.1494
24.1	0.15735	-0.1494
24.15	0.1577	-0.1493
24.2	0.162	-0.1492
24.25	0.1619	-0.1492
24.3	0.16234	-0.1491
24.35	0.16319	-0.1491
24.4	0.16304	-0.1491
24.45	0.16335	-0.1491
24.5	0.16341	-0.1491
24.55	0.16292	-0.1491
24.6	0.16316	-0.1491
24.65	0.16335	-0.1491
24.7	0.16299	-0.1491
24.75	0.16313	-0.1491
24.8	0.16293	-0.1491
24.85	0.1628	-0.1491
24.9	0.16281	-0.1491
24.95	0.16302	-0.1491
25.0	0.16283	-0.1492
25.05	0.16382	-0.1492
25.1	0.16313	-0.1492
25.15	0.16159	-0.1492
25.2	0.16151	-0.1493
25.25	0.16095	-0.1493
25.3	0.16005	-0.1495
25.35	0.15788	-0.1499
25.4	0.15343	-0.1505
25.45	0.15308	-0.1506
25.5	0.15256	-0.1508
25.55	0.15076	-0.1513
25.6	0.14743	-0.1516
25.65	0.14546	-0.152
25.7	0.14445	-0.1523
25.75	0.13901	-0.1527
25.8	0.13785	-0.1531
25.85	0.13719	-0.1532
25.9	0.13542	-0.1536
25.95	0.13126	-0.1539
26.0	0.13013	-0.154
26.05	0.12723	-0.1544
26.1	0.12245	-0.1549
26.15	0.11339	-0.1555
26.2	0.11102	-0.1557
26.25	0.10867	-0.156
26.3	0.10486	-0.1563
26.35	0.0972	-0.1567
26.4	0.0936	-0.157
26.45	0.0896	-0.1573
26.5	0.08231	-0.1576
26.55	0.08015	-0.1578
26.6	0.07919	-0.1579
26.65	0.07425	-0.1585
26.7	0.06519	-0.1589
26.75	0.06422	-0.159
26.8	0.0641	-0.1591
26.85	0.0641	-0.1591
26.9	0.06284	-0.1592
26.95	0.06163	-0.1593
27.0	0.05882	-0.1596
27.05	0.05516	-0.16
27.1	0.05177	-0.1603
27.15	0.0504	-0.1606
27.2	0.04999	-0.1609
27.25	0.04973	-0.1612
27.3	0.04971	-0.1613
27.35	0.04988	-0.1614
27.4	0.05042	-0.1616
27.45	0.05106	-0.1617
27.5	0.05103	-0.1617
27.55	0.05093	-0.1617
27.6	0.05061	-0.1617
27.65	0.05307	-0.1615
27.7	0.0533	-0.1615
27.75	0.0535	-0.1615
27.8	0.05344	-0.1615
27.85	0.05347	-0.1615
27.9	0.05318	-0.1615
27.95	0.05345	-0.1615
28.0	0.05324	-0.1615
28.05	0.05328	-0.1615
28.1	0.05295	-0.1615
28.15	0.05319	-0.1615
28.2	0.05313	-0.1615
28.25	0.05299	-0.1615
28.3	0.05289	-0.1615
28.35	0.05299	-0.1615
28.4	0.05292	-0.1615
28.45	0.0531	-0.1615
28.5	0.0531	-0.1615
28.55	0.0526	-0.1616
28.6	0.05183	-0.1618
28.65	0.05124	-0.1619
28.7	0.05197	-0.1619
28.75	0.05437	-0.1623
28.8	0.06215	-0.1629
28.85	0.075	-0.1632
28.9	0.08058	-0.1634
28.95	0.08694	-0.1637
29.0	0.08992	-0.1638
29.05	0.09927	-0.1639
29.1	0.1189	-0.1644
29.15	0.13326	-0.1647
29.2	0.1377	-0.1648
29.25	0.15483	-0.165
29.3	0.16301	-0.1652
29.35	0.16797	-0.1653
29.4	0.19801	-0.1655
29.45	0.22432	-0.1659
29.5	0.24117	-0.1662
29.55	0.24768	-0.1663
29.6	0.25369	-0.1663
29.65	0.26456	-0.1665
29.7	0.28325	-0.1668
29.75	0.33308	-0.1672
29.8	0.35451	-0.1675
29.85	0.36223	-0.1676
29.9	0.36642	-0.1677
29.95	0.38292	-0.1679
30.0	0.41818	-0.1683
30.05	0.46701	-0.1687
30.1	0.51741	-0.169
30.15	0.53433	-0.1692
30.2	0.55171	-0.1693
30.25	0.61133	-0.1696
30.3	0.64001	-0.1699
30.35	0.65303	-0.17
30.4	0.65953	-0.17
30.45	0.67513	-0.1701
30.5	0.69771	-0.1704
30.55	0.75478	-0.1706
30.6	0.79092	-0.1708
30.65	0.83739	-0.1712
30.7	0.91164	-0.1714
30.75	0.93253	-0.1716
30.8	0.96979	-0.1718
30.85	1.01518	-0.1721
30.9	1.06909	-0.1722
30.95	1.07951	-0.1723
31.0	1.10098	-0.1725
31.05	1.19482	-0.1729
31.1	1.21442	-0.173
31.15	1.23289	-0.1732
31.2	1.27794	-0.1734
31.25	1.30678	-0.1736
31.3	1.34604	-0.174
31.35	1.46391	-0.1744
31.4	1.51839	-0.1747
31.45	1.56332	-0.1748
31.5	1.57437	-0.1749
31.55	1.60172	-0.175
31.6	1.66563	-0.1752
31.65	1.68898	-0.1754
31.7	1.70816	-0.1755
31.75	1.79266	-0.1757
31.8	1.86301	-0.1762
31.85	1.93214	-0.1766
31.9	1.98602	-0.1768
31.95	1.99387	-0.1769
32.0	2.00034	-0.177
32.05	2.01143	-0.177
32.1	2.01573	-0.1771
32.15	2.02214	-0.1771
32.2	2.0791	-0.1773
32.25	2.13518	-0.1775
32.3	2.19588	-0.1777
32.35	2.26184	-0.1779
32.4	2.30794	-0.1781
32.45	2.36153	-0.1784
32.5	2.44939	-0.1786
32.55	2.52228	-0.179
32.6	2.57159	-0.1793
32.65	2.63345	-0.1795
32.7	2.69696	-0.1799
32.75	2.81589	-0.1802
32.8	2.86774	-0.1805
32.85	2.90854	-0.1808
32.9	2.9881	-0.181
32.95	2.99821	-0.1811
33.0	3.00845	-0.1812
33.05	3.02251	-0.1812
33.1	3.06288	-0.1815
33.15	3.12546	-0.1818
33.2	3.15906	-0.1818
33.25	3.16588	-0.1819
33.3	3.19247	-0.182
33.35	3.25053	-0.1823
33.4	3.31265	-0.1827
33.45	3.36211	-0.1829
33.5	3.36676	-0.1829
33.55	3.36943	-0.1829
33.6	3.37422	-0.1829
33.65	3.38223	-0.183
33.7	3.4097	-0.1833
33.75	3.46524	-0.1835
33.8	3.47119	-0.1835
33.85	3.49248	-0.1836
33.9	3.49892	-0.1837
33.95	3.51155	-0.1837
34.0	3.60231	-0.1839
34.05	3.66693	-0.1843
34.1	3.71313	-0.1846
34.15	3.73602	-0.1846
34.2	3.74557	-0.1847
34.25	3.75772	-0.1848
34.3	3.79672	-0.1849
34.35	3.82954	-0.1852
34.4	3.85719	-0.1854
34.45	3.8596	-0.1854
34.5	3.86287	-0.1854
34.55	3.92599	-0.1857
34.6	3.95708	-0.1861
34.65	3.96597	-0.1862
34.7	3.97664	-0.1862
34.75	3.98027	-0.1863
34.8	3.98004	-0.1863
34.85	3.97673	-0.1863
34.9	3.97508	-0.1863
34.95	3.97418	-0.1862
35.0	4.1017	-0.186
35.05	4.12784	-0.1859
35.1	4.12737	-0.1859
35.15	4.12511	-0.1859
35.2	4.12447	-0.1859
35.25	4.12997	-0.1859
35.3	4.12749	-0.1859
35.35	4.12599	-0.1859
35.4	4.12631	-0.1859
35.45	4.12688	-0.1859
35.5	4.12733	-0.1859
35.55	4.12753	-0.1859
35.6	4.12817	-0.1859
35.65	4.12744	-0.1859
35.7	4.12869	-0.1859
35.75	4.12851	-0.1859
35.8	4.12834	-0.1859
35.85	4.12755	-0.1859
35.9	4.12834	-0.1859
35.95	4.129	-0.1859
36.0	4.12917	-0.1859
36.05	4.12894	-0.1859
36.1	4.12672	-0.1859
36.15	4.11972	-0.186
36.2	4.09703	-0.1862
36.25	4.06703	-0.1862
36.3	4.06441	-0.1863
36.35	4.06413	-0.1863
36.4	4.05954	-0.1866
36.45	4.09761	-0.1869
36.5	4.13228	-0.1872
36.55	4.19113	-0.1875
36.6	4.21452	-0.1877
36.65	4.27438	-0.1881
36.7	4.2899	-0.1885
36.75	4.30949	-0.1888
36.8	4.32809	-0.1889
36.85	4.33128	-0.1889
36.9	4.33267	-0.189
36.95	4.34918	-0.1891
37.0	4.35907	-0.1893
37.05	4.36436	-0.1894
37.1	4.37192	-0.1895
37.15	4.37737	-0.1896
37.2	4.38295	-0.1899
37.25	4.38834	-0.1903
37.3	4.39087	-0.1904
37.35	4.39459	-0.1905
37.4	4.39417	-0.1905
37.45	4.39554	-0.1906
37.5	4.39203	-0.1907
37.55	4.39209	-0.1908
37.6	4.38721	-0.1911
37.65	4.37755	-0.1914
37.7	4.37302	-0.1916
37.75	4.37132	-0.1917
37.8	4.37115	-0.1917
37.85	4.37158	-0.1919
37.9	4.36429	-0.1919
37.95	4.35989	-0.1922
38.0	4.3517	-0.1927
38.05	4.3297	-0.1931
38.1	4.32497	-0.1932
38.15	4.31953	-0.1933
38.2	4.31467	-0.1933
38.25	4.31439	-0.1934
38.3	4.30937	-0.1934
38.35	4.30557	-0.1935
38.4	4.30415	-0.1936
38.45	4.26373	-0.1939
38.5	4.23271	-0.1943
38.55	4.22089	-0.1944
38.6	4.21068	-0.1945
38.65	4.20819	-0.1945
38.7	4.20642	-0.1946
38.75	4.15771	-0.1948
38.8	4.09125	-0.1953
38.85	4.01932	-0.1958
38.9	3.93822	-0.1961
38.95	3.92909	-0.1962
39.0	3.92126	-0.1962
39.05	3.91544	-0.1963
39.1	3.8931	-0.1966
39.15	3.72453	-0.1971
39.2	3.69748	-0.1973
39.25	3.68919	-0.1973
39.3	3.67549	-0.1974
39.35	3.66768	-0.1974
39.4	3.6512	-0.1975
39.45	3.49805	-0.1979
39.5	3.40575	-0.1984
39.55	3.39818	-0.1984
39.6	3.39548	-0.1984
39.65	3.38429	-0.1985
39.7	3.334	-0.1986
39.75	3.31056	-0.1987
39.8	3.2903	-0.1989
39.85	3.24252	-0.199
39.9	3.19522	-0.1992
39.95	3.03502	-0.1997
40.0	2.96063	-0.1998
40.05	2.95447	-0.1998
40.1	2.95119	-0.1998
40.15	2.94357	-0.1999
40.2	2.92055	-0.2
40.25	2.84796	-0.2001
40.3	2.78438	-0.2004
40.35	2.7581	-0.2005
40.4	2.74138	-0.2005
40.45	2.71552	-0.2006
40.5	2.6198	-0.2008
40.55	2.56357	-0.2011
40.6	2.55042	-0.2011
40.65	2.54922	-0.2011
40.7	2.55035	-0.2011
40.75	2.55347	-0.2011
40.8	2.43245	-0.201
40.85	2.33163	-0.2008
40.9	2.32405	-0.2008
40.95	2.31934	-0.2008
41.0	2.32065	-0.2008
41.05	2.31897	-0.2008
41.1	2.31883	-0.2008
41.15	2.31905	-0.2008
41.2	2.31816	-0.2008
41.25	2.3179	-0.2008
41.3	2.31677	-0.2008
41.35	2.31779	-0.2008
41.4	2.31822	-0.2008
41.45	2.31772	-0.2008
41.5	2.31538	-0.2008
41.55	2.31483	-0.2008
41.6	2.31487	-0.2008
41.65	2.31686	-0.2008
41.7	2.3174	-0.2008
41.75	2.31712	-0.2008
41.8	2.31645	-0.2008
41.85	2.3213	-0.2009
41.9	2.33774	-0.201
41.95	2.36194	-0.2011
42.0	2.37801	-0.2013
42.05	2.37929	-0.2013
42.1	2.38039	-0.2013
42.15	2.37894	-0.2013
42.2	2.34618	-0.2013
42.25	2.20247	-0.2018
42.3	2.07675	-0.2024
42.35	2.03056	-0.2025
42.4	2.01498	-0.2026
42.45	2.0071	-0.2027
42.5	1.95854	-0.2029
42.55	1.87524	-0.2033
42.6	1.7368	-0.2039
42.65	1.65356	-0.2041
42.7	1.63448	-0.2041
42.75	1.61777	-0.2042
42.8	1.5403	-0.2043
42.85	1.4361	-0.2048
42.9	1.41617	-0.2049
42.95	1.3766	-0.205
43.0	1.34901	-0.2052
43.05	1.32207	-0.2053
43.1	1.22482	-0.2056
43.15	1.17451	-0.2059
43.2	1.11032	-0.2061
43.25	1.08781	-0.2061
43.3	1.0817	-0.2062
43.35	1.07054	-0.2063
43.4	1.01707	-0.2064
43.45	0.9222	-0.2069
43.5	0.89273	-0.2071
43.55	0.8867	-0.2071
43.6	0.88615	-0.2071
43.65	0.88405	-0.2071
43.7	0.84293	-0.2073
43.75	0.81383	-0.2075
43.8	0.77942	-0.2077
43.85	0.7431	-0.2079
43.9	0.71158	-0.2081
43.95	0.66895	-0.2085
44.0	0.62077	-0.2088
44.05	0.61617	-0.2088
44.1	0.61197	-0.2089
44.15	0.60637	-0.2089
44.2	0.60031	-0.2089
44.25	0.59131	-0.209
44.3	0.55592	-0.2094
44.35	0.48247	-0.2098
44.4	0.46832	-0.2099
44.45	0.4568	-0.21
44.5	0.44545	-0.2101
44.55	0.4364	-0.2102
44.6	0.41228	-0.2105
44.65	0.38736	-0.2106
44.7	0.37854	-0.2107
44.75	0.36877	-0.2109
44.8	0.3501	-0.211
44.85	0.33574	-0.2112
44.9	0.30728	-0.2115
44.95	0.28706	-0.2116
45.0	0.2841	-0.2116
45.05	0.27902	-0.2118
45.1	0.26738	-0.212
45.15	0.23235	-0.2123
45.2	0.21312	-0.2126
45.25	0.19872	-0.2128
45.3	0.19482	-0.2129
45.35	0.18407	-0.213
45.4	0.16977	-0.2133
45.45	0.15761	-0.2136
45.5	0.12575	-0.214
45.55	0.11749	-0.2143
45.6	0.11566	-0.2144
45.65	0.11473	-0.2145
45.7	0.11427	-0.2145
45.75	0.11377	-0.2145
45.8	0.1125	-0.2146
45.85	0.10945	-0.2149
45.9	0.09508	-0.2152
45.95	0.09474	-0.2152
46.0	0.09479	-0.2152
46.05	0.09412	-0.2152
46.1	0.09357	-0.2153
46.15	0.0907	-0.2154
46.2	0.08736	-0.2155
46.25	0.07982	-0.2157
46.3	0.07895	-0.2158
46.35	0.07639	-0.2159
46.4	0.07295	-0.216
46.45	0.06352	-0.2163
46.5	0.05922	-0.2166
46.55	0.05731	-0.2167
46.6	0.05588	-0.2168
46.65	0.05588	-0.2168
46.7	0.0554	-0.2169
46.75	0.05484	-0.2169
46.8	0.05389	-0.217
46.85	0.04816	-0.2174
46.9	0.04677	-0.2176
46.95	0.04588	-0.2177
47.0	0.04482	-0.2179
47.05	0.04272	-0.2182
47.1	0.04262	-0.2183
47.15	0.04253	-0.2184
47.2	0.04214	-0.2185
47.25	0.04225	-0.2187
47.3	0.04228	-0.2188
47.35	0.04247	-0.219
47.4	0.04333	-0.2193
47.45	0.04485	-0.2194
47.5	0.04488	-0.2195
47.55	0.04518	-0.2195
47.6	0.04523	-0.2195
47.65	0.04517	-0.2195
47.7	0.04518	-0.2195
47.75	0.04588	-0.2193
47.8	0.04926	-0.219
47.85	0.05275	-0.219
47.9	0.0527	-0.219
47.95	0.05278	-0.219
48.0	0.05278	-0.219
48.05	0.05275	-0.219
48.1	0.05278	-0.219
48.15	0.05292	-0.219
48.2	0.05296	-0.219
48.25	0.0527	-0.219
48.3	0.05327	-0.219
48.35	0.0531	-0.219
48.4	0.05305	-0.219
48.45	0.05296	-0.219
48.5	0.05305	-0.219
48.55	0.05223	-0.2191
48.6	0.05119	-0.2193
48.65	0.05014	-0.2194
48.7	0.05042	-0.2194
48.75	0.05072	-0.2195
48.8	0.05093	-0.2195
48.85	0.05185	-0.2196
48.9	0.05518	-0.22
48.95	0.06451	-0.2207
49.0	0.07149	-0.2211
49.05	0.0771	-0.2213
49.1	0.07915	-0.2215
49.15	0.08252	-0.2218
49.2	0.0871	-0.222
49.25	0.09314	-0.2223
49.3	0.09769	-0.2225
49.35	0.09979	-0.2227
49.4	0.10205	-0.2228
49.45	0.11159	-0.2231
49.5	0.11794	-0.2234
49.55	0.12868	-0.2238
49.6	0.13773	-0.2241
49.65	0.14406	-0.2242
49.7	0.14828	-0.2244
49.75	0.15222	-0.2247
49.8	0.16904	-0.2251
49.85	0.17912	-0.2257
49.9	0.18346	-0.226
49.95	0.18549	-0.2262
50.0	0.18791	-0.2264
50.05	0.1888	-0.2267
50.1	0.19031	-0.2271
50.15	0.19189	-0.2275
50.2	0.19225	-0.2278
50.25	0.19208	-0.228
50.3	0.19148	-0.2281
50.35	0.19107	-0.2283
50.4	0.18976	-0.2286
50.45	0.18858	-0.2289
50.5	0.1881	-0.229
50.55	0.18768	-0.2292
50.6	0.18642	-0.2294
50.65	0.1841	-0.2296
50.7	0.18262	-0.2299
50.75	0.18112	-0.2302
50.8	0.17804	-0.2305
50.85	0.17679	-0.2307
50.9	0.17586	-0.2308
50.95	0.17596	-0.2308
51.0	0.17606	-0.2308
51.05	0.17607	-0.2309
51.1	0.17561	-0.231
51.15	0.17119	-0.2314
51.2	0.17	-0.2317
51.25	0.16994	-0.2318
51.3	0.1694	-0.2319
51.35	0.16812	-0.232
51.4	0.16727	-0.2322
51.45	0.16602	-0.2325
51.5	0.16354	-0.2327
51.55	0.1626	-0.233
51.6	0.16202	-0.2332
51.65	0.16129	-0.2335
51.7	0.16098	-0.2335
51.75	0.16066	-0.2337
51.8	0.15952	-0.234
51.85	0.15854	-0.2341
51.9	0.15811	-0.2343
51.95	0.15736	-0.2346
52.0	0.15681	-0.2347
52.05	0.15683	-0.2348
52.1	0.15714	-0.2348
52.15	0.15656	-0.2351
52.2	0.15466	-0.2354
52.25	0.15417	-0.2356
52.3	0.15425	-0.2357
52.35	0.15372	-0.236
52.4	0.15346	-0.236
52.45	0.15356	-0.2361
52.5	0.15315	-0.2363
52.55	0.15135	-0.2366
52.6	0.15065	-0.2369
52.65	0.15001	-0.2371
52.7	0.14963	-0.2372
52.75	0.14937	-0.2373
52.8	0.14891	-0.2373
52.85	0.14877	-0.2374
52.9	0.14809	-0.2375
52.95	0.14691	-0.2376
53.0	0.14568	-0.2378
53.05	0.14526	-0.2379
53.1	0.14258	-0.2382
53.15	0.14058	-0.2384
53.2	0.1396	-0.2386
53.25	0.1378	-0.2387
53.3	0.13676	-0.2388
53.35	0.13684	-0.2388
53.4	0.13651	-0.2388
53.45	0.13568	-0.2391
53.5	0.12717	-0.2395
53.55	0.12601	-0.2396
53.6	0.12578	-0.2396
53.65	0.12483	-0.2397
53.7	0.12274	-0.2398
53.75	0.11937	-0.24
53.8	0.11853	-0.2401
53.85	0.11385	-0.2402
53.9	0.11182	-0.2404
53.95	0.11172	-0.2404
54.0	0.1118	-0.2404
54.05	0.1114	-0.2404
54.1	0.11145	-0.2404
54.15	0.1116	-0.2404
54.2	0.11179	-0.2403
54.25	0.09126	-0.24
54.3	0.08893	-0.2399
54.35	0.08884	-0.2398
54.4	0.0882	-0.2398
54.45	0.08806	-0.2398
54.5	0.08832	-0.2398
54.55	0.08832	-0.2398
54.6	0.08894	-0.2398
54.65	0.08881	-0.2398
54.7	0.08937	-0.2398
54.75	0.08939	-0.2398
54.8	0.0894	-0.2398
54.85	0.089	-0.2398
54.9	0.08894	-0.2398
54.95	0.08873	-0.2398
55.0	0.08871	-0.2398
55.05	0.08897	-0.2398
55.1	0.08879	-0.2399
55.15	0.089	-0.2399
55.2	0.09016	-0.24
55.25	0.09203	-0.2402
55.3	0.09261	-0.2404
55.35	0.09488	-0.2405
55.4	0.09431	-0.2406
55.45	0.09074	-0.241
55.5	0.07852	-0.2415
55.55	0.06972	-0.2422
55.6	0.06352	-0.2428
55.65	0.0589	-0.2431
55.7	0.05391	-0.2434
55.75	0.05058	-0.2438
55.8	0.04744	-0.2442
55.85	0.04652	-0.2443
55.9	0.04327	-0.2446
55.95	0.04243	-0.2449
56.0	0.04141	-0.2452
56.05	0.04044	-0.2456
56.1	0.0387	-0.2458
56.15	0.03825	-0.246
56.2	0.03819	-0.2463
56.25	0.03749	-0.2468
56.3	0.03711	-0.2472
56.35	0.03705	-0.2475
56.4	0.037	-0.2476
56.45	0.03728	-0.2481
56.5	0.03801	-0.2485
56.55	0.03796	-0.2487
56.6	0.03836	-0.2487
56.65	0.03809	-0.2487
56.7	0.03845	-0.2488
56.75	0.03847	-0.2488
56.8	0.03877	-0.249
56.85	0.03908	-0.2491
56.9	0.04002	-0.2492
56.95	0.04131	-0.2495
57.0	0.04236	-0.2496
57.05	0.04277	-0.2498
57.1	0.0453	-0.25
57.15	0.04649	-0.2502
57.2	0.04744	-0.2503
57.25	0.04904	-0.2504
57.3	0.0504	-0.2506
57.35	0.05296	-0.2509
57.4	0.05534	-0.2512
57.45	0.05649	-0.2514
57.5	0.0567	-0.2514
57.55	0.05678	-0.2514
57.6	0.05705	-0.2515
57.65	0.05806	-0.2518
57.7	0.06343	-0.2523
57.75	0.06398	-0.2524
57.8	0.06377	-0.2525
57.85	0.064	-0.2525
57.9	0.064	-0.2525
57.95	0.06421	-0.2526
58.0	0.06503	-0.2529
58.05	0.06638	-0.2532
58.1	0.06592	-0.2532
58.15	0.06604	-0.2531
58.2	0.06775	-0.2529
58.25	0.07024	-0.2527
58.3	0.07065	-0.2527
58.35	0.07063	-0.2527
58.4	0.07062	-0.2527
58.45	0.07068	-0.2527
58.5	0.07051	-0.2527
58.55	0.07074	-0.2527
58.6	0.07066	-0.2527
58.65	0.07062	-0.2527
58.7	0.07031	-0.2527
58.75	0.07059	-0.2527
58.8	0.0708	-0.2527
58.85	0.07074	-0.2527
58.9	0.0705	-0.2528
58.95	0.07068	-0.2529
59.0	0.0705	-0.2529
59.05	0.0701	-0.253
59.1	0.06961	-0.2532
59.15	0.06937	-0.2533
59.2	0.06924	-0.2533
59.25	0.06947	-0.2535
59.3	0.06989	-0.2538
59.35	0.07031	-0.2542
59.4	0.07095	-0.2543
59.45	0.07167	-0.2546
59.5	0.07253	-0.255
59.55	0.07268	-0.2553
59.6	0.07278	-0.2554
59.65	0.07315	-0.2555
59.7	0.07336	-0.2555
59.75	0.07332	-0.2556
59.8	0.07353	-0.256
59.85	0.07523	-0.2566
59.9	0.07559	-0.257
59.95	0.07629	-0.2573
60.0	0.0769	-0.2577
60.05	0.07794	-0.2579
60.1	0.07936	-0.2583
60.15	0.08194	-0.2589
60.2	0.0843	-0.2593
60.25	0.08675	-0.2595
60.3	0.08702	-0.2596
60.35	0.08786	-0.2598
60.4	0.09204	-0.2601
60.45	0.09497	-0.2604
60.5	0.0979	-0.2608
60.55	0.10031	-0.2611
60.6	0.10193	-0.2612
60.65	0.10223	-0.2613
60.7	0.10367	-0.2615
60.75	0.10596	-0.2619
60.8	0.10794	-0.262
60.85	0.10759	-0.262
60.9	0.10791	-0.262
60.95	0.1077	-0.262
61.0	0.10793	-0.2621
61.05	0.10901	-0.2624
61.1	0.10968	-0.2629
61.15	0.10924	-0.2631
61.2	0.10924	-0.2631
61.25	0.10847	-0.2633
61.3	0.10745	-0.2636
61.35	0.10497	-0.2638
61.4	0.10303	-0.264
61.45	0.10202	-0.2641
61.5	0.10162	-0.2642
61.55	0.09477	-0.2646
61.6	0.09351	-0.2647
61.65	0.09258	-0.2649
61.7	0.09006	-0.265
61.75	0.08894	-0.2651
61.8	0.08585	-0.2654
61.85	0.08266	-0.2656
61.9	0.07994	-0.2657
61.95	0.07973	-0.2658
62.0	0.07979	-0.2658
62.05	0.07893	-0.2658
62.1	0.07668	-0.266
62.15	0.07271	-0.2664
62.2	0.07124	-0.2665
62.25	0.07112	-0.2665
62.3	0.07108	-0.2665
62.35	0.07083	-0.2665
62.4	0.07072	-0.2666
62.45	0.06447	-0.2671
62.5	0.06345	-0.2674
62.55	0.0631	-0.2675
62.6	0.06317	-0.2675
62.65	0.06245	-0.2676
62.7	0.06165	-0.2677
62.75	0.06111	-0.2679
62.8	0.05946	-0.2683
62.85	0.05812	-0.2685
62.9	0.058	-0.2686
62.95	0.05772	-0.2686
63.0	0.05754	-0.2688
63.05	0.05521	-0.2693
63.1	0.05501	-0.2695
63.15	0.05484	-0.2695
63.2	0.05476	-0.2695
63.25	0.05484	-0.2696
63.3	0.05481	-0.2696
63.35	0.05409	-0.2699
63.4	0.05348	-0.2702
63.45	0.0531	-0.2703
63.5	0.05319	-0.2703
63.55	0.05307	-0.2705
63.6	0.05228	-0.2707
63.65	0.0513	-0.271
63.7	0.05099	-0.2712
63.75	0.05081	-0.2713
63.8	0.05045	-0.2715
63.85	0.04973	-0.2716
63.9	0.04915	-0.2717
63.95	0.04848	-0.272
64.0	0.04807	-0.2721
64.05	0.04785	-0.2721
64.1	0.04768	-0.2721
64.15	0.04735	-0.2724
64.2	0.0448	-0.2731
64.25	0.04283	-0.2734
64.3	0.04239	-0.2735
64.35	0.04137	-0.2738
64.4	0.0401	-0.2743
64.45	0.03935	-0.2744
64.5	0.03952	-0.2744
64.55	0.03932	-0.2744
64.6	0.03911	-0.2743
64.65	0.03807	-0.2742
64.7	0.03694	-0.2739
64.75	0.03714	-0.2738
64.8	0.03728	-0.2738
64.85	0.03714	-0.2738
64.9	0.03714	-0.2738
64.95	0.03708	-0.2738
65.0	0.03732	-0.2738
65.05	0.037	-0.2738
65.1	0.03729	-0.2738
65.15	0.037	-0.2738
65.2	0.03732	-0.2738
65.25	0.03748	-0.2739
65.3	0.03764	-0.2741
65.35	0.03807	-0.2743
65.4	0.03825	-0.2743
65.45	0.03827	-0.2744
65.5	0.03767	-0.2746
65.55	0.03717	-0.2752
65.6	0.03671	-0.2761
65.65	0.03708	-0.277
65.7	0.03729	-0.2776
65.75	0.03735	-0.2777
65.8	0.03789	-0.2778
65.85	0.03865	-0.2781
65.9	0.04097	-0.2789
65.95	0.04298	-0.2797
66.0	0.0446	-0.2802
66.05	0.04883	-0.2808
66.1	0.0502	-0.2814
66.15	0.05086	-0.2818
66.2	0.05162	-0.2822
66.25	0.05322	-0.2828
66.3	0.0535	-0.2832
66.35	0.05374	-0.2833
66.4	0.05406	-0.2838
66.45	0.05501	-0.2845
66.5	0.05725	-0.2851
66.55	0.05859	-0.2856
66.6	0.05934	-0.2857
66.65	0.05942	-0.2858
66.7	0.05991	-0.2858
66.75	0.06203	-0.2862
66.8	0.06714	-0.2871
66.85	0.07211	-0.2878
66.9	0.07448	-0.2882
66.95	0.07397	-0.2887
67.0	0.07274	-0.2892
67.05	0.06956	-0.2896
67.1	0.06793	-0.2901
67.15	0.06761	-0.2902
67.2	0.0676	-0.2902
67.25	0.06764	-0.2903
67.3	0.06735	-0.2903
67.35	0.06612	-0.2906
67.4	0.06468	-0.291
67.45	0.06358	-0.2912
67.5	0.0632	-0.2914
67.55	0.06277	-0.2916
67.6	0.06247	-0.2918
67.65	0.06209	-0.2919
67.7	0.06206	-0.2921
67.75	0.0616	-0.2926
67.8	0.06154	-0.2928
67.85	0.06142	-0.2929
67.9	0.06174	-0.2928
67.95	0.06276	-0.2923
68.0	0.06296	-0.2922
68.05	0.06305	-0.2922
68.1	0.06306	-0.2922
68.15	0.06308	-0.2922
68.2	0.06334	-0.2922
68.25	0.0634	-0.2922
68.3	0.06317	-0.2922
68.35	0.06346	-0.2922
68.4	0.06355	-0.2924
68.45	0.06334	-0.2926
68.5	0.06316	-0.2928
68.55	0.06349	-0.2929
68.6	0.06361	-0.2931
68.65	0.06433	-0.2938
68.7	0.06615	-0.2944
68.75	0.0657	-0.2954
68.8	0.0636	-0.2962
68.85	0.06227	-0.2965
68.9	0.05888	-0.2969
68.95	0.05632	-0.2974
69.0	0.05397	-0.2979
69.05	0.05141	-0.2988
69.1	0.0495	-0.2993
69.15	0.04904	-0.2998
69.2	0.04858	-0.3002
69.25	0.04846	-0.3006
69.3	0.0479	-0.301
69.35	0.04749	-0.3015
69.4	0.04695	-0.302
69.45	0.04655	-0.3025
69.5	0.04504	-0.303
69.55	0.0451	-0.3032
69.6	0.04427	-0.3036
69.65	0.04414	-0.3039
69.7	0.04326	-0.3043
69.75	0.04333	-0.3046
69.8	0.04317	-0.3048
69.85	0.04333	-0.3051
69.9	0.04359	-0.3058
69.95	0.0439	-0.3063
70.0	0.04387	-0.3064
70.05	0.04405	-0.3065
70.1	0.04442	-0.3066
70.15	0.04466	-0.3068
70.2	0.04521	-0.3071
70.25	0.04599	-0.3073
70.3	0.04628	-0.3076
70.35	0.04687	-0.3078
70.4	0.04813	-0.3085
70.45	0.05048	-0.3093
70.5	0.05058	-0.3094
70.55	0.05061	-0.3094
70.6	0.05052	-0.3094
70.65	0.0508	-0.3093
70.7	0.05081	-0.3091
70.75	0.05109	-0.3091
70.8	0.05092	-0.3091
70.85	0.05099	-0.3091
70.9	0.05099	-0.3091
70.95	0.05128	-0.3091
71.0	0.05122	-0.3091
71.05	0.05124	-0.3091
71.1	0.05124	-0.3091
71.15	0.05107	-0.3092
71.2	0.05124	-0.3094
71.25	0.05119	-0.31
71.3	0.05229	-0.3108
71.35	0.05368	-0.3122
71.4	0.0565	-0.3133
71.45	0.05846	-0.3139
71.5	0.0612	-0.3145
71.55	0.06107	-0.3154
71.6	0.05943	-0.3165
71.65	0.05833	-0.3176
71.7	0.05968	-0.3185
71.75	0.06161	-0.3192
71.8	0.06354	-0.3198
71.85	0.06419	-0.3202
71.9	0.0658	-0.3207
71.95	0.06534	-0.3211
72.0	0.0648	-0.3216
72.05	0.06236	-0.3224
72.1	0.05807	-0.3229
72.15	0.05728	-0.3235
72.2	0.05635	-0.3241
72.25	0.05598	-0.3246
72.3	0.05554	-0.325
72.35	0.05548	-0.3255
72.4	0.05519	-0.3259
72.45	0.05389	-0.3267
72.5	0.05165	-0.3272
72.55	0.05197	-0.3273
72.6	0.05177	-0.3273
72.65	0.05078	-0.3268
72.7	0.05026	-0.3268
72.75	0.0506	-0.3268
72.8	0.05028	-0.3268
72.85	0.05048	-0.3268
72.9	0.05029	-0.3268
72.95	0.05045	-0.3268
73.0	0.05038	-0.3268
73.05	0.05042	-0.3268
73.1	0.05058	-0.3269
73.15	0.05083	-0.3272
73.2	0.05009	-0.328
73.25	0.04771	-0.3292
73.3	0.0459	-0.3305
73.35	0.0452	-0.3319
73.4	0.04515	-0.333
73.45	0.04436	-0.3343
73.5	0.04543	-0.3356
73.55	0.04698	-0.337
73.6	0.048	-0.3382
73.65	0.04878	-0.3387
73.7	0.04869	-0.339
73.75	0.04947	-0.3399
73.8	0.05136	-0.3413
73.85	0.05206	-0.3415
73.9	0.05219	-0.3415
73.95	0.05232	-0.3415
74.0	0.0524	-0.3415
74.05	0.05228	-0.3415
74.1	0.05284	-0.3413
74.15	0.05327	-0.3412
74.2	0.05339	-0.3411
74.25	0.05363	-0.3411
74.3	0.05341	-0.3411
74.35	0.05336	-0.3411
74.4	0.05351	-0.3411
74.45	0.05348	-0.3411
74.5	0.05339	-0.3411
74.55	0.0536	-0.3411
74.6	0.05341	-0.3411
74.65	0.05359	-0.3411
74.7	0.0535	-0.3411
74.75	0.05368	-0.3411
74.8	0.05367	-0.3411
74.85	0.05373	-0.3411
74.9	0.05365	-0.341
74.95	0.05353	-0.3409
75.0	0.05347	-0.3408
75.05	0.05318	-0.3407
75.1	0.05312	-0.3406
75.15	0.05328	-0.3406
75.2	0.05299	-0.3403
75.25	0.05255	-0.3403
75.3	0.05267	-0.3403
75.35	0.05246	-0.3402
75.4	0.05243	-0.3401
75.45	0.05231	-0.3401
75.5	0.05208	-0.34
75.55	0.05185	-0.3399
75.6	0.05205	-0.3399
75.65	0.05196	-0.3398
75.7	0.05016	-0.3393
75.75	0.04991	-0.3388
75.8	0.04918	-0.3378
75.85	0.04858	-0.3371
75.9	0.04843	-0.337
75.95	0.04796	-0.3367
76.0	0.04745	-0.3361
76.05	0.04668	-0.3352
76.1	0.04478	-0.3338
76.15	0.04469	-0.3328
76.2	0.04475	-0.3319
76.25	0.04533	-0.3309
76.3	0.04568	-0.3303
76.35	0.04605	-0.3296
76.4	0.0462	-0.329
76.45	0.04831	-0.328
76.5	0.04922	-0.3272
76.55	0.05142	-0.3265
76.6	0.05418	-0.3256
76.65	0.05542	-0.3249
76.7	0.05624	-0.3243
76.75	0.05618	-0.3237
76.8	0.05675	-0.3235
76.85	0.05681	-0.3235
76.9	0.0564	-0.3235
76.95	0.05664	-0.3235
77.0	0.0565	-0.3235
77.05	0.05664	-0.3235
77.1	0.05652	-0.3235
77.15	0.05656	-0.3235
77.2	0.0565	-0.3235
77.25	0.05652	-0.3235
77.3	0.05669	-0.3235
77.35	0.05652	-0.3235
77.4	0.05589	-0.3235
77.45	0.05635	-0.3235
77.5	0.0567	-0.3235
77.55	0.05646	-0.3234
77.6	0.05692	-0.3228
77.65	0.05972	-0.3215
77.7	0.06598	-0.3205
77.75	0.06606	-0.3198
77.8	0.06465	-0.3188
77.85	0.06172	-0.318
77.9	0.0594	-0.3176
77.95	0.05869	-0.3169
78.0	0.05952	-0.3159
78.05	0.06105	-0.3148
78.1	0.0611	-0.314
78.15	0.05923	-0.3131
78.2	0.05711	-0.3122
78.25	0.05557	-0.3117
78.3	0.05342	-0.311
78.35	0.05295	-0.3103
78.4	0.05249	-0.3097
78.45	0.05153	-0.3086
78.5	0.04907	-0.3076
78.55	0.04762	-0.3068
78.6	0.04678	-0.3064
78.65	0.04703	-0.3064
78.7	0.04692	-0.3064
78.75	0.04668	-0.3064
78.8	0.04709	-0.3064
78.85	0.04677	-0.3064
78.9	0.04671	-0.3064
78.95	0.0468	-0.3064
79.0	0.04684	-0.3064
79.05	0.04668	-0.3064
79.1	0.04692	-0.3064
79.15	0.04678	-0.3064
79.2	0.04662	-0.3064
79.25	0.04663	-0.3064
79.3	0.04695	-0.3064
79.35	0.04681	-0.3063
79.4	0.0464	-0.3059
79.45	0.04555	-0.3055
79.5	0.04573	-0.3055
79.55	0.04539	-0.3054
79.6	0.04504	-0.3052
79.65	0.04475	-0.3042
79.7	0.04625	-0.303
79.75	0.04738	-0.302
79.8	0.04877	-0.3009
79.85	0.05144	-0.2996
79.9	0.05333	-0.298
79.95	0.05992	-0.2961
80.0	0.06764	-0.2945
80.05	0.07008	-0.2938
80.1	0.07004	-0.2932
80.15	0.06848	-0.2922
80.2	0.0666	-0.2908
80.25	0.06683	-0.2906
80.3	0.06723	-0.2903
80.35	0.06764	-0.2901
80.4	0.06744	-0.2901
80.45	0.06734	-0.2902
80.5	0.06737	-0.2903
80.55	0.06737	-0.2904
80.6	0.06706	-0.2904
80.65	0.06741	-0.2904
80.7	0.06764	-0.2904
80.75	0.06728	-0.2904
80.8	0.06732	-0.2904
80.85	0.0672	-0.2904
80.9	0.06685	-0.2903
80.95	0.06693	-0.2903
81.0	0.06717	-0.2903
81.05	0.0672	-0.2903
81.1	0.06784	-0.2901
81.15	0.0687	-0.2898
81.2	0.07196	-0.289
81.25	0.08	-0.2879
81.3	0.08029	-0.2874
81.35	0.08041	-0.2872
81.4	0.08022	-0.2867
81.45	0.07472	-0.2859
81.5	0.0697	-0.2848
81.55	0.06767	-0.2844
81.6	0.06766	-0.2843
81.65	0.06671	-0.2843
81.7	0.0661	-0.2841
81.75	0.06467	-0.2837
81.8	0.06335	-0.2834
81.85	0.06247	-0.2832
81.9	0.06238	-0.2831
81.95	0.0612	-0.2827
82.0	0.06046	-0.2822
82.05	0.05919	-0.2817
82.1	0.05881	-0.2813
82.15	0.05817	-0.2808
82.2	0.05704	-0.2801
82.25	0.05595	-0.2799
82.3	0.05608	-0.2798
82.35	0.05484	-0.2794
82.4	0.05095	-0.2781
82.45	0.04837	-0.2778
82.5	0.04846	-0.2778
82.55	0.04822	-0.2778
82.6	0.04826	-0.2778
82.65	0.04832	-0.2778
82.7	0.04854	-0.2778
82.75	0.04826	-0.2778
82.8	0.04848	-0.2778
82.85	0.04848	-0.2778
82.9	0.04828	-0.2778
82.95	0.04849	-0.2778
83.0	0.04843	-0.2778
83.05	0.04855	-0.2778
83.1	0.04854	-0.2778
83.15	0.04849	-0.2778
83.2	0.04872	-0.2778
83.25	0.04861	-0.2778
83.3	0.04845	-0.2777
83.35	0.04733	-0.2772
83.4	0.04536	-0.276
83.45	0.04425	-0.2754
83.5	0.04457	-0.2746
83.55	0.04506	-0.2741
83.6	0.04533	-0.2739
83.65	0.04559	-0.2737
83.7	0.04607	-0.2734
83.75	0.04597	-0.2734
83.8	0.04662	-0.273
83.85	0.04765	-0.2728
83.9	0.0479	-0.2727
83.95	0.04808	-0.2725
84.0	0.05003	-0.2719
84.05	0.05199	-0.2717
84.1	0.0531	-0.2714
84.15	0.05521	-0.271
84.2	0.05553	-0.2709
84.25	0.05582	-0.2709
84.3	0.0562	-0.2708
84.35	0.05608	-0.2708
84.4	0.05632	-0.2707
84.45	0.05858	-0.2704
84.5	0.05826	-0.2703
84.55	0.0583	-0.2702
84.6	0.05882	-0.2702
84.65	0.06015	-0.27
84.7	0.06227	-0.2693
84.75	0.06444	-0.2684
84.8	0.06503	-0.268
84.85	0.06525	-0.268
84.9	0.06532	-0.268
84.95	0.0654	-0.268
85.0	0.06604	-0.2676
85.05	0.06682	-0.2673
85.1	0.06758	-0.2671
85.15	0.06802	-0.2671
85.2	0.06819	-0.2668
85.25	0.06915	-0.2666
85.3	0.06949	-0.2665
85.35	0.06947	-0.2665
85.4	0.06958	-0.2665
85.45	0.07315	-0.2661
85.5	0.07478	-0.2656
85.55	0.07442	-0.2655
85.6	0.07483	-0.2655
85.65	0.07468	-0.2655
85.7	0.0751	-0.2654
85.75	0.07794	-0.265
85.8	0.08107	-0.2647
85.85	0.0838	-0.2645
85.9	0.08798	-0.2641
85.95	0.08888	-0.2639
86.0	0.08926	-0.2639
86.05	0.08919	-0.2639
86.1	0.08919	-0.264
86.15	0.089	-0.264
86.2	0.08833	-0.264
86.25	0.088	-0.264
86.3	0.08846	-0.264
86.35	0.0883	-0.264
86.4	0.08655	-0.2642
86.45	0.08629	-0.2644
86.5	0.08653	-0.2644
86.55	0.08647	-0.2644
86.6	0.08466	-0.2643
86.65	0.0842	-0.2643
86.7	0.08469	-0.2643
86.75	0.08533	-0.2643
86.8	0.08661	-0.2641
86.85	0.08752	-0.2641
86.9	0.08865	-0.264
86.95	0.09012	-0.2639
87.0	0.09308	-0.2637
87.05	0.10023	-0.2631
87.1	0.1037	-0.2628
87.15	0.10941	-0.2625
87.2	0.1123	-0.2622
87.25	0.11346	-0.262
87.3	0.11656	-0.2616
87.35	0.11993	-0.2614
87.4	0.12038	-0.2613
87.45	0.12088	-0.2611
87.5	0.1214	-0.261
87.55	0.121	-0.2606
87.6	0.12088	-0.2604
87.65	0.12061	-0.2604
87.7	0.11856	-0.2601
87.75	0.11668	-0.2598
87.8	0.11562	-0.2596
87.85	0.11496	-0.2594
87.9	0.10927	-0.259
87.95	0.10773	-0.2588
88.0	0.10725	-0.2587
88.05	0.10623	-0.2585
88.1	0.10289	-0.2582
88.15	0.10133	-0.258
88.2	0.09929	-0.2578
88.25	0.09886	-0.2578
88.3	0.0972	-0.2576
88.35	0.09576	-0.2574
88.4	0.09502	-0.2572
88.45	0.0928	-0.2571
88.5	0.09157	-0.2569
88.55	0.09081	-0.2568
88.6	0.09088	-0.2568
88.65	0.091	-0.2568
88.7	0.09122	-0.2568
88.75	0.0907	-0.2567
88.8	0.09042	-0.2566
88.85	0.08928	-0.2566
88.9	0.08878	-0.2564
88.95	0.08759	-0.2562
89.0	0.08611	-0.256
89.05	0.08521	-0.2559
89.1	0.08441	-0.2557
89.15	0.08443	-0.2557
89.2	0.08397	-0.2556
89.25	0.08443	-0.2556
89.3	0.0842	-0.2555
89.35	0.08331	-0.2553
89.4	0.08304	-0.2552
89.45	0.08296	-0.2552
89.5	0.08313	-0.2552
89.55	0.08191	-0.255
89.6	0.08165	-0.2549
89.65	0.08131	-0.2548
89.7	0.0807	-0.2547
89.75	0.08014	-0.2545
89.8	0.08006	-0.2544
89.85	0.07988	-0.2544
89.9	0.07983	-0.2542
89.95	0.07823	-0.2538
90.0	0.07813	-0.2536
90.05	0.07797	-0.2535
90.1	0.07748	-0.2533
90.15	0.07693	-0.2531
90.2	0.07687	-0.2529
90.25	0.07574	-0.2523
90.3	0.07411	-0.2521
90.35	0.07399	-0.2521
90.4	0.07382	-0.2521
90.45	0.07367	-0.2522
90.5	0.07368	-0.2522
90.55	0.07382	-0.2522
90.6	0.07391	-0.2522
90.65	0.07399	-0.2522
90.7	0.07402	-0.2522
90.75	0.07375	-0.2522
90.8	0.07393	-0.2522
90.85	0.07384	-0.2522
90.9	0.07365	-0.2521
90.95	0.07368	-0.2521
91.0	0.07373	-0.2521
91.05	0.0739	-0.2521
91.1	0.07352	-0.2521
91.15	0.07222	-0.2518
91.2	0.07066	-0.2514
91.25	0.06871	-0.251
91.3	0.06749	-0.2509
91.35	0.06688	-0.2508
91.4	0.06578	-0.2506
91.45	0.06418	-0.2504
91.5	0.06294	-0.2502
91.55	0.05998	-0.2498
91.6	0.05685	-0.2491
91.65	0.05446	-0.2487
91.7	0.05244	-0.2485
91.75	0.05116	-0.2483
91.8	0.05072	-0.2481
91.85	0.04976	-0.2478
91.9	0.04913	-0.2477
91.95	0.04915	-0.2476
92.0	0.04877	-0.2476
92.05	0.04802	-0.2472
92.1	0.04768	-0.2471
92.15	0.0479	-0.247
92.2	0.04756	-0.2469
92.25	0.04721	-0.2468
92.3	0.04739	-0.2468
92.35	0.04716	-0.2468
92.4	0.04716	-0.2467
92.45	0.0464	-0.2462
92.5	0.04639	-0.2459
92.55	0.04651	-0.2456
92.6	0.04703	-0.2451
92.65	0.04713	-0.2451
92.7	0.047	-0.245
92.75	0.04726	-0.245
92.8	0.04698	-0.245
92.85	0.04784	-0.2448
92.9	0.048	-0.2446
92.95	0.04846	-0.2444
93.0	0.04868	-0.2442
93.05	0.04977	-0.244
93.1	0.05008	-0.2439
93.15	0.0508	-0.2437
93.2	0.05156	-0.2434
93.25	0.05244	-0.2434
93.3	0.05264	-0.2433
93.35	0.05322	-0.2432
93.4	0.05379	-0.2431
93.45	0.05675	-0.2428
93.5	0.05754	-0.2426
93.55	0.05748	-0.2425
93.6	0.05766	-0.2425
93.65	0.05992	-0.2423
93.7	0.06242	-0.242
93.75	0.06618	-0.2416
93.8	0.06752	-0.2415
93.85	0.07407	-0.2412
93.9	0.07704	-0.2409
93.95	0.07738	-0.2408
94.0	0.07719	-0.2408
94.05	0.0775	-0.2408
94.1	0.07738	-0.2409
94.15	0.07753	-0.2409
94.2	0.07732	-0.2409
94.25	0.07744	-0.2409
94.3	0.07736	-0.2409
94.35	0.07722	-0.2409
94.4	0.07716	-0.2409
94.45	0.07732	-0.2409
94.5	0.0769	-0.2409
94.55	0.07672	-0.2409
94.6	0.07672	-0.2408
94.65	0.07684	-0.2408
94.7	0.07683	-0.2408
94.75	0.07692	-0.2408
94.8	0.07808	-0.2408
94.85	0.08398	-0.2405
94.9	0.09256	-0.2399
94.95	0.09695	-0.2397
95.0	0.09972	-0.2396
95.05	0.10429	-0.2394
95.1	0.11133	-0.239
95.15	0.11729	-0.2388
95.2	0.12828	-0.2385
95.25	0.13345	-0.2382
95.3	0.13811	-0.238
95.35	0.14198	-0.2379
95.4	0.14882	-0.2376
95.45	0.15495	-0.2372
95.5	0.15688	-0.2371
95.55	0.15831	-0.2371
95.6	0.16353	-0.2367
95.65	0.16489	-0.2366
95.7	0.16505	-0.2366
95.75	0.16513	-0.2366
95.8	0.16649	-0.2365
95.85	0.16933	-0.2362
95.9	0.17119	-0.2361
95.95	0.17119	-0.236
96.0	0.17352	-0.2357
96.05	0.17699	-0.2355
96.1	0.17792	-0.2354
96.15	0.17967	-0.235
96.2	0.18018	-0.2349
96.25	0.18015	-0.2349
96.3	0.18021	-0.2349
96.35	0.17996	-0.2349
96.4	0.17966	-0.2349
96.45	0.17931	-0.2349
96.5	0.17958	-0.2349
96.55	0.17955	-0.2349
96.6	0.18066	-0.2348
96.65	0.18169	-0.2345
96.7	0.18208	-0.2343
96.75	0.18176	-0.2343
96.8	0.1817	-0.2342
96.85	0.18172	-0.2342
96.9	0.1817	-0.2341
96.95	0.18164	-0.234
97.0	0.18144	-0.2339
97.05	0.18149	-0.2338
97.1	0.18175	-0.2337
97.15	0.18182	-0.2336
97.2	0.18234	-0.2336
97.25	0.18217	-0.2336
97.3	0.18205	-0.2336
97.35	0.1819	-0.2336
97.4	0.18181	-0.2336
97.45	0.18158	-0.2336
97.5	0.18159	-0.2336
97.55	0.18143	-0.2334
97.6	0.18085	-0.233
97.65	0.18097	-0.2329
97.7	0.18123	-0.2329
97.75	0.18155	-0.2328
97.8	0.18143	-0.2326
97.85	0.1808	-0.2324
97.9	0.18086	-0.2322
97.95	0.17995	-0.2319
98.0	0.17969	-0.2316
98.05	0.17943	-0.2316
98.1	0.17892	-0.2316
98.15	0.17906	-0.2315
98.2	0.17885	-0.2314
98.25	0.17987	-0.2314
98.3	0.18005	-0.2313
98.35	0.17969	-0.231
98.4	0.17957	-0.2307
98.45	0.17911	-0.2303
98.5	0.17876	-0.2301
98.55	0.17863	-0.2299
98.6	0.17908	-0.2299
98.65	0.1785	-0.2298
98.7	0.17851	-0.2296
98.75	0.17937	-0.2295
98.8	0.17946	-0.2295
98.85	0.17946	-0.2294
98.9	0.17992	-0.2293
98.95	0.17978	-0.2292
99.0	0.17944	-0.2289
99.05	0.17932	-0.2287
99.1	0.17978	-0.2285
99.15	0.17955	-0.2285
99.2	0.17949	-0.2284
99.25	0.17918	-0.2284
99.3	0.17969	-0.2281
99.35	0.18027	-0.2277
99.4	0.18048	-0.2277
99.45	0.1804	-0.2276
99.5	0.18024	-0.2276
99.55	0.18039	-0.2276
99.6	0.17995	-0.2276
99.65	0.18005	-0.2277
99.7	0.18021	-0.2277
99.75	0.17975	-0.2278
99.8	0.17969	-0.2278
99.85	0.1799	-0.2278
99.9	0.18015	-0.2278
99.95	0.18066	-0.2278
100.0	0.18065	-0.2278
100.05	0.18015	-0.2281
100.1	0.18011	-0.2282
100.15	0.18005	-0.2282
100.2	0.18015	-0.2281
100.25	0.18005	-0.2281
100.3	0.17935	-0.2281
100.35	0.17982	-0.2279
100.4	0.18008	-0.2278
100.45	0.18091	-0.2278
100.5	0.18069	-0.2277
100.55	0.18031	-0.2277
100.6	0.1804	-0.2275
100.65	0.18031	-0.2274
100.7	0.18016	-0.2271
100.75	0.17943	-0.2263
100.8	0.17613	-0.2256
100.85	0.17542	-0.2254
100.9	0.17508	-0.2254
100.95	0.17493	-0.2253
101.0	0.1747	-0.2253
101.05	0.17381	-0.225
101.1	0.17133	-0.2246
101.15	0.16669	-0.2243
101.2	0.1657	-0.2242
101.25	0.16371	-0.2239
101.3	0.15672	-0.2236
101.35	0.15378	-0.2234
101.4	0.15141	-0.2232
101.45	0.14989	-0.2231
101.5	0.14514	-0.2229
101.55	0.13954	-0.2226
101.6	0.13719	-0.2225
101.65	0.13492	-0.2223
101.7	0.12938	-0.2222
101.75	0.1268	-0.2221
101.8	0.12558	-0.222
101.85	0.11543	-0.2216
101.9	0.11272	-0.2215
101.95	0.11145	-0.2214
102.0	0.10861	-0.2211
102.05	0.08792	-0.2205
102.1	0.08707	-0.2203
102.15	0.08669	-0.2203
102.2	0.08664	-0.2203
102.25	0.08435	-0.2203
102.3	0.0831	-0.2202
102.35	0.08003	-0.22
102.4	0.07751	-0.22
102.45	0.07629	-0.2199
102.5	0.07579	-0.2198
102.55	0.0724	-0.2196
102.6	0.06795	-0.2194
102.65	0.06577	-0.2193
102.7	0.06206	-0.2191
102.75	0.06039	-0.2189
102.8	0.05751	-0.2188
102.85	0.0536	-0.2184
102.9	0.05194	-0.218
102.95	0.05125	-0.2179
103.0	0.05075	-0.2177
103.05	0.05157	-0.2172
103.1	0.0535	-0.2167
103.15	0.05594	-0.2163
103.2	0.06763	-0.2157
103.25	0.07201	-0.2154
103.3	0.07555	-0.2152
103.35	0.07771	-0.215
103.4	0.08891	-0.2147
103.45	0.0932	-0.2145
103.5	0.09387	-0.2145
103.55	0.0945	-0.2145
103.6	0.09489	-0.2145
103.65	0.09486	-0.2145
103.7	0.09502	-0.2145
103.75	0.0957	-0.2145
103.8	0.09479	-0.2145
103.85	0.09247	-0.2146
103.9	0.09235	-0.2146
103.95	0.09241	-0.2146
104.0	0.09198	-0.2146
104.05	0.0923	-0.2146
104.1	0.08899	-0.2148
104.15	0.0864	-0.2151
104.2	0.08633	-0.2152
104.25	0.08614	-0.2152
104.3	0.08542	-0.2151
104.35	0.0858	-0.2151
104.4	0.08449	-0.2151
104.45	0.08107	-0.2149
104.5	0.08794	-0.2147
104.55	0.0882	-0.2147
104.6	0.09045	-0.2146
104.65	0.09174	-0.2146
104.7	0.09608	-0.2145
104.75	0.09749	-0.2144
104.8	0.09906	-0.2143
104.85	0.10771	-0.2142
104.9	0.10988	-0.214
104.95	0.11058	-0.214
105.0	0.11261	-0.2139
105.05	0.14931	-0.2133
105.1	0.15547	-0.2129
105.15	0.15588	-0.2129
105.2	0.15633	-0.2129
105.25	0.16133	-0.2128
105.3	0.18636	-0.2121
105.35	0.23637	-0.2111
105.4	0.28796	-0.2107
105.45	0.28879	-0.2106
105.5	0.29179	-0.2106
105.55	0.2944	-0.2106
105.6	0.31082	-0.2104
105.65	0.34166	-0.2099
105.7	0.36218	-0.2095
105.75	0.41496	-0.2092
105.8	0.41725	-0.2091
105.85	0.41866	-0.2091
105.9	0.42502	-0.2091
105.95	0.45647	-0.2087
106.0	0.47139	-0.2086
106.05	0.47316	-0.2086
106.1	0.47556	-0.2086
106.15	0.47633	-0.2086
106.2	0.4765	-0.2086
106.25	0.48851	-0.2085
106.3	0.49107	-0.2084
106.35	0.51173	-0.2082
106.4	0.54944	-0.208
106.45	0.55167	-0.208
106.5	0.55269	-0.208
106.55	0.58481	-0.2079
106.6	0.64049	-0.2074
106.65	0.65683	-0.2072
106.7	0.66092	-0.2072
106.75	0.66338	-0.2072
106.8	0.66386	-0.2072
106.85	0.66484	-0.2071
106.9	0.72798	-0.2068
106.95	0.77155	-0.2064
107.0	0.77637	-0.2064
107.05	0.78123	-0.2063
107.1	0.8215	-0.2059
107.15	0.88902	-0.2054
107.2	0.94502	-0.2053
107.25	1.0032	-0.2049
107.3	1.0451	-0.2047
107.35	1.05389	-0.2047
107.4	1.06451	-0.2046
107.45	1.1501	-0.204
107.5	1.22595	-0.2038
107.55	1.2455	-0.2037
107.6	1.33174	-0.2031
107.65	1.40678	-0.203
107.7	1.41707	-0.203
107.75	1.41661	-0.203
107.8	1.41855	-0.203
107.85	1.39888	-0.2031
107.9	1.39479	-0.2031
107.95	1.39352	-0.2031
108.0	1.39372	-0.2031
108.05	1.39258	-0.2031
108.1	1.39313	-0.2031
108.15	1.39436	-0.2031
108.2	1.39166	-0.2031
108.25	1.38914	-0.2031
108.3	1.38483	-0.2031
108.35	1.38647	-0.2031
108.4	1.39491	-0.2031
108.45	1.40767	-0.203
108.5	1.43207	-0.2029
108.55	1.47733	-0.2026
108.6	1.57545	-0.2023
108.65	1.59573	-0.2022
108.7	1.59993	-0.2022
108.75	1.60425	-0.2022
108.8	1.63252	-0.2021
108.85	1.71384	-0.2018
108.9	1.75064	-0.2016
108.95	1.79002	-0.2015
109.0	1.79109	-0.2015
109.05	1.79454	-0.2015
109.1	1.80374	-0.2015
109.15	1.81155	-0.2015
109.2	1.88885	-0.2009
109.25	2.04199	-0.2007
109.3	2.04634	-0.2007
109.35	2.05135	-0.2006
109.4	2.11575	-0.2005
109.45	2.23428	-0.2
109.5	2.30086	-0.1998
109.55	2.34886	-0.1996
109.6	2.43111	-0.1992
109.65	2.68524	-0.1986
109.7	2.69217	-0.1985
109.75	2.69188	-0.1984
109.8	2.8269	-0.198
109.85	2.8308	-0.198
109.9	2.83788	-0.198
109.95	2.88597	-0.1979
110.0	2.91013	-0.1977
110.05	3.05077	-0.1974
110.1	3.07632	-0.1972
110.15	3.09036	-0.1972
110.2	3.17485	-0.1969
110.25	3.177	-0.1969
110.3	3.18044	-0.1969
110.35	3.1875	-0.1969
110.4	3.19495	-0.1969
110.45	3.20076	-0.1969
110.5	3.20447	-0.1969
110.55	3.21973	-0.1968
110.6	3.31194	-0.1966
110.65	3.39381	-0.1964
110.7	3.45311	-0.1962
110.75	3.5246	-0.196
110.8	3.66615	-0.1955
110.85	3.71503	-0.1954
110.9	3.73734	-0.1953
110.95	3.74203	-0.1953
111.0	3.74234	-0.1953
111.05	3.77164	-0.1952
111.1	3.85913	-0.1948
111.15	3.93423	-0.1946
111.2	3.93535	-0.1945
111.25	3.93323	-0.1945
111.3	3.93159	-0.1945
111.35	3.93578	-0.1945
111.4	4.02779	-0.1938
111.45	4.1701	-0.1935
111.5	4.1725	-0.1934
111.55	4.19731	-0.1931
111.6	4.2928	-0.1929
111.65	4.29852	-0.1928
111.7	4.30362	-0.1927
111.75	4.38594	-0.1924
111.8	4.40907	-0.1922
111.85	4.5042	-0.1918
111.9	4.52902	-0.1915
111.95	4.53844	-0.1914
112.0	4.55173	-0.1912
112.05	4.55615	-0.1911
112.1	4.56714	-0.1909
112.15	4.62178	-0.1906
112.2	4.6295	-0.1905
112.25	4.64082	-0.1903
112.3	4.66956	-0.1901
112.35	4.67276	-0.19
112.4	4.68001	-0.1899
112.45	4.68706	-0.1897
112.5	4.70807	-0.1894
112.55	4.72044	-0.1893
112.6	4.72266	-0.1891
112.65	4.73218	-0.1886
112.7	4.73471	-0.1885
112.75	4.73495	-0.1882
112.8	4.72897	-0.188
112.85	4.72893	-0.188
112.9	4.72673	-0.188
112.95	4.72777	-0.188
113.0	4.72357	-0.188
113.05	4.71838	-0.188
113.1	4.71619	-0.1881
113.15	4.71703	-0.1881
113.2	4.71622	-0.1881
113.25	4.7162	-0.1881
113.3	4.71555	-0.1881
113.35	4.71721	-0.1881
113.4	4.71713	-0.1881
113.45	4.71674	-0.1881
113.5	4.71535	-0.1881
113.55	4.71758	-0.1881
113.6	4.71623	-0.1881
113.65	4.71513	-0.1881
113.7	4.71503	-0.1881
113.75	4.71989	-0.1881
113.8	4.72118	-0.1881
113.85	4.72191	-0.1881
113.9	4.7207	-0.1881
113.95	4.7234	-0.1881
114.0	4.72441	-0.188
114.05	4.72375	-0.188
114.1	4.72499	-0.188
114.15	4.72664	-0.188
114.2	4.72751	-0.188
114.25	4.72786	-0.188
114.3	4.71831	-0.1877
114.35	4.70505	-0.1874
114.4	4.69193	-0.1873
114.45	4.67085	-0.187
114.5	4.66344	-0.1869
114.55	4.63651	-0.1867
114.6	4.63263	-0.1867
114.65	4.63062	-0.1866
114.7	4.56226	-0.1863
114.75	4.54239	-0.1861
114.8	4.53647	-0.1861
114.85	4.52827	-0.186
114.9	4.49638	-0.1857
114.95	4.45084	-0.1855
115.0	4.4357	-0.1854
115.05	4.42215	-0.1853
115.1	4.38503	-0.1851
115.15	4.3654	-0.1849
115.2	4.35439	-0.1849
115.25	4.34773	-0.1848
115.3	4.33595	-0.1846
115.35	4.26237	-0.1843
115.4	4.26022	-0.1842
115.45	4.25328	-0.1842
115.5	4.24602	-0.1841
115.55	4.23241	-0.184
115.6	4.18388	-0.1837
115.65	4.14796	-0.1837
115.7	4.13506	-0.1836
115.75	4.12292	-0.1836
115.8	4.09537	-0.1835
115.85	4.03679	-0.1832
115.9	3.9817	-0.183
115.95	3.96138	-0.1829
116.0	3.93015	-0.1827
116.05	3.86569	-0.1825
116.1	3.86435	-0.1825
116.15	3.86363	-0.1825
116.2	3.84935	-0.1824
116.25	3.80275	-0.1822
116.3	3.74187	-0.1819
116.35	3.71999	-0.1819
116.4	3.70404	-0.1818
116.45	3.68169	-0.1817
116.5	3.66876	-0.1816
116.55	3.66371	-0.1816
116.6	3.6573	-0.1816
116.65	3.63425	-0.1815
116.7	3.59909	-0.1813
116.75	3.58467	-0.1812
116.8	3.57434	-0.1811
116.85	3.56833	-0.1811
116.9	3.56236	-0.1811
116.95	3.56281	-0.1811
117.0	3.563	-0.1811
117.05	3.56264	-0.1811
117.1	3.56006	-0.181
117.15	3.55937	-0.181
117.2	3.55626	-0.181
117.25	3.5554	-0.181
117.3	3.5529	-0.181
117.35	3.54611	-0.181
117.4	3.54181	-0.1809
117.45	3.47104	-0.1808
117.5	3.44014	-0.1805
117.55	3.41484	-0.1804
117.6	3.36586	-0.1803
117.65	3.33269	-0.1801
117.7	3.31895	-0.18
117.75	3.24576	-0.1798
117.8	3.21274	-0.1797
117.85	3.18396	-0.1796
117.9	3.06821	-0.1793
117.95	2.98024	-0.1789
118.0	2.84698	-0.1786
118.05	2.79182	-0.1783
118.1	2.77135	-0.1782
118.15	2.73915	-0.1781
118.2	2.71613	-0.178
118.25	2.68626	-0.1779
118.3	2.64363	-0.1777
118.35	2.60333	-0.1776
118.4	2.58849	-0.1775
118.45	2.58328	-0.1775
118.5	2.56619	-0.1773
118.55	2.42749	-0.1771
118.6	2.38878	-0.1769
118.65	2.32466	-0.1766
118.7	2.20787	-0.1764
118.75	2.20163	-0.1763
118.8	2.20044	-0.1763
118.85	2.19858	-0.1763
118.9	2.19125	-0.1764
118.95	2.18996	-0.1764
119.0	2.19167	-0.1764
119.05	2.19072	-0.1764
119.1	2.1909	-0.1764
119.15	2.19185	-0.1764
119.2	2.19159	-0.1764
119.25	2.19054	-0.1764
119.3	2.19087	-0.1764
119.35	2.1911	-0.1764
119.4	2.22215	-0.1765
119.45	2.22769	-0.1765
119.5	2.23013	-0.1766
119.55	2.23521	-0.1767
119.6	2.23662	-0.1767
119.65	2.23898	-0.1767
119.7	2.3186	-0.1767
119.75	2.32071	-0.1767
119.8	2.31972	-0.1766
119.85	2.2744	-0.1765
119.9	2.25282	-0.1765
119.95	2.24045	-0.1764
120.0	2.20279	-0.1763
120.05	2.1848	-0.1762
120.1	2.16251	-0.1761
120.15	2.0014	-0.1757
120.2	1.91461	-0.1752
120.25	1.89529	-0.1751
120.3	1.82565	-0.1749
120.35	1.7934	-0.1747
120.4	1.74934	-0.1744
120.45	1.67624	-0.1742
120.5	1.66986	-0.1742
120.55	1.63182	-0.1738
120.6	1.39117	-0.1733
120.65	1.31941	-0.173
120.7	1.29912	-0.1729
120.75	1.29587	-0.1729
120.8	1.29573	-0.1729
120.85	1.29463	-0.1728
120.9	1.13408	-0.1723
120.95	1.0726	-0.1718
121.0	1.05069	-0.1717
121.05	1.04201	-0.1717
121.1	1.04028	-0.1717
121.15	1.03764	-0.1717
121.2	0.99968	-0.1715
121.25	0.95363	-0.1712
121.3	0.93208	-0.1711
121.35	0.87999	-0.1709
121.4	0.86276	-0.1708
121.45	0.85214	-0.1707
121.5	0.81865	-0.1706
121.55	0.78987	-0.1704
121.6	0.76564	-0.1702
121.65	0.70734	-0.1701
121.7	0.65714	-0.1697
121.75	0.64725	-0.1696
121.8	0.63858	-0.1695
121.85	0.63771	-0.1695
121.9	0.63455	-0.1695
121.95	0.60817	-0.1694
122.0	0.59352	-0.1693
122.05	0.57132	-0.1691
122.1	0.54166	-0.1689
122.15	0.53506	-0.1689
122.2	0.52605	-0.1688
122.25	0.51901	-0.1687
122.3	0.50737	-0.1687
122.35	0.49146	-0.1685
122.4	0.472	-0.1684
122.45	0.44814	-0.1683
122.5	0.43581	-0.1682
122.55	0.43082	-0.1681
122.6	0.42754	-0.1681
122.65	0.42409	-0.1681
122.7	0.41219	-0.168
122.75	0.40788	-0.168
122.8	0.40453	-0.1679
122.85	0.40311	-0.1679
122.9	0.40137	-0.1679
122.95	0.39342	-0.1679
123.0	0.38358	-0.1677
123.05	0.36011	-0.1675
123.1	0.33063	-0.1674
123.15	0.32332	-0.1673
123.2	0.30763	-0.1671
123.25	0.27907	-0.1669
123.3	0.27385	-0.1669
123.35	0.26294	-0.1668
123.4	0.2574	-0.1667
123.45	0.22485	-0.1664
123.5	0.2041	-0.1661
123.55	0.19649	-0.1659
123.6	0.18411	-0.1658
123.65	0.18062	-0.1657
123.7	0.17935	-0.1657
123.75	0.17305	-0.1654
123.8	0.13846	-0.165
123.85	0.13547	-0.1649
123.9	0.12959	-0.1647
123.95	0.11327	-0.1645
124.0	0.09869	-0.1642
124.05	0.08975	-0.1639
124.1	0.08719	-0.1637
124.15	0.07571	-0.1635
124.2	0.07422	-0.1633
124.25	0.07315	-0.1632
124.3	0.06787	-0.1629
124.35	0.0614	-0.1626
124.4	0.05804	-0.1624
124.45	0.05688	-0.1622
124.5	0.05615	-0.1621
124.55	0.0551	-0.162
124.6	0.05382	-0.162
124.65	0.05185	-0.1617
124.7	0.05049	-0.1615
124.75	0.04985	-0.1614
124.8	0.04977	-0.1614
124.85	0.04993	-0.1614
124.9	0.04967	-0.1614
124.95	0.04967	-0.1615
125.0	0.05014	-0.1615
125.05	0.05014	-0.1615
125.1	0.04999	-0.1615
125.15	0.05038	-0.1615
125.2	0.05035	-0.1615
125.25	0.05035	-0.1615
125.3	0.05035	-0.1615
125.35	0.05045	-0.1615
125.4	0.05032	-0.1615
125.45	0.05043	-0.1615
125.5	0.05023	-0.1615
125.55	0.05055	-0.1615
125.6	0.05035	-0.1615
125.65	0.05031	-0.1615
125.7	0.05032	-0.1615
125.75	0.05048	-0.1615
125.8	0.05038	-0.1615
125.85	0.05006	-0.1614
125.9	0.04988	-0.1614
125.95	0.04921	-0.1612
126.0	0.04895	-0.1609
126.05	0.04869	-0.1607
126.1	0.0498	-0.1603
126.15	0.04991	-0.1601
126.2	0.05013	-0.1601
126.25	0.05057	-0.1599
126.3	0.05374	-0.1596
126.35	0.0563	-0.1592
126.4	0.05812	-0.159
126.45	0.05971	-0.1587
126.5	0.06436	-0.1584
126.55	0.06519	-0.1583
126.6	0.06769	-0.158
126.65	0.06975	-0.1579
126.7	0.06956	-0.1579
126.75	0.06992	-0.1579
126.8	0.07005	-0.1579
126.85	0.07103	-0.1577
126.9	0.07922	-0.1573
126.95	0.08018	-0.1571
127.0	0.08231	-0.1569
127.05	0.08333	-0.1568
127.1	0.08598	-0.1567
127.15	0.08719	-0.1565
127.2	0.08768	-0.1564
127.25	0.08882	-0.1563
127.3	0.08928	-0.1563
127.35	0.08923	-0.1563
127.4	0.09004	-0.1561
127.45	0.09624	-0.1558
127.5	0.09644	-0.1557
127.55	0.09665	-0.1557
127.6	0.0963	-0.1557
127.65	0.09627	-0.1557
127.7	0.09668	-0.1557
127.75	0.09871	-0.1555
127.8	0.10649	-0.1551
127.85	0.10939	-0.1549
127.9	0.11201	-0.1546
127.95	0.11293	-0.1545
128.0	0.11707	-0.1543
128.05	0.11876	-0.1541
128.1	0.11946	-0.154
128.15	0.12	-0.1539
128.2	0.1243	-0.1538
128.25	0.12976	-0.1532
128.3	0.13348	-0.1528
128.35	0.13843	-0.1523
128.4	0.14142	-0.1522
128.45	0.14178	-0.1521
128.5	0.14403	-0.1519
128.55	0.14613	-0.1518
128.6	0.14581	-0.1518
128.65	0.1458	-0.1518
128.7	0.1458	-0.1518
128.75	0.1449	-0.1518
128.8	0.14467	-0.1518
128.85	0.14508	-0.1518
128.9	0.145	-0.1518
128.95	0.14511	-0.1518
129.0	0.14508	-0.1518
129.05	0.14516	-0.1518
129.1	0.14586	-0.1518
129.15	0.14577	-0.1518
129.2	0.14534	-0.1518
129.25	0.14568	-0.1518
129.3	0.14552	-0.1518
129.35	0.14537	-0.1518
129.4	0.14534	-0.1518
129.45	0.14526	-0.1518
129.5	0.14523	-0.1518
129.55	0.14586	-0.1517
129.6	0.14659	-0.1516
129.65	0.1532	-0.1512
129.7	0.15475	-0.151
129.75	0.15666	-0.1507
129.8	0.16013	-0.1502
129.85	0.16461	-0.15
129.9	0.16663	-0.1498
129.95	0.16998	-0.1494
130.0	0.17326	-0.1492
130.05	0.17422	-0.1491
130.1	0.17744	-0.1487
130.15	0.17871	-0.1486
130.2	0.17944	-0.1486
130.25	0.18079	-0.1484
130.3	0.1812	-0.1483
130.35	0.18253	-0.1481
130.4	0.18463	-0.1477
130.45	0.18799	-0.1471
130.5	0.19719	-0.1464
130.55	0.19791	-0.1463
130.6	0.1976	-0.1462
130.65	0.19707	-0.1462
130.7	0.19685	-0.1462
130.75	0.1974	-0.1461
130.8	0.19926	-0.1458
130.85	0.19986	-0.1458
130.9	0.19936	-0.1457
130.95	0.19923	-0.1457
131.0	0.19899	-0.1456
131.05	0.19957	-0.1453
131.1	0.1994	-0.145
131.15	0.19983	-0.1449
131.2	0.20013	-0.1447
131.25	0.19991	-0.1447
131.3	0.1996	-0.1447
131.35	0.19931	-0.1446
131.4	0.19908	-0.1444
131.45	0.19923	-0.1444
131.5	0.19844	-0.1443
131.55	0.19841	-0.1442
131.6	0.19795	-0.1441
131.65	0.19804	-0.1441
131.7	0.19815	-0.144
131.75	0.19774	-0.1437
131.8	0.19771	-0.1436
131.85	0.1982	-0.1436
131.9	0.19806	-0.1436
131.95	0.1976	-0.1436
132.0	0.19746	-0.1435
132.05	0.19727	-0.1433
132.1	0.19592	-0.1432
132.15	0.19554	-0.1431
132.2	0.19501	-0.1431
132.25	0.19418	-0.1431
132.3	0.19351	-0.1429
132.35	0.19005	-0.1424
132.4	0.16733	-0.1414
132.45	0.16356	-0.1411
132.5	0.162	-0.141
132.55	0.16165	-0.141
132.6	0.16116	-0.141
132.65	0.16171	-0.141
132.7	0.16154	-0.141
132.75	0.15567	-0.1408
132.8	0.15523	-0.1407
132.85	0.15504	-0.1407
132.9	0.15431	-0.1407
132.95	0.15399	-0.1407
133.0	0.15413	-0.1407
133.05	0.15417	-0.1407
133.1	0.15475	-0.1407
133.15	0.1546	-0.1407
133.2	0.15475	-0.1407
133.25	0.15402	-0.1407
133.3	0.15683	-0.1409
133.35	0.15642	-0.141
133.4	0.15633	-0.141
133.45	0.15636	-0.141
133.5	0.15657	-0.141
133.55	0.15668	-0.141
133.6	0.15648	-0.141
133.65	0.15596	-0.1411
133.7	0.15598	-0.1411
133.75	0.15688	-0.1411
133.8	0.15802	-0.1411
133.85	0.1622	-0.141
133.9	0.15996	-0.1409
133.95	0.15891	-0.1408
134.0	0.15611	-0.1407
134.05	0.15601	-0.1407
134.1	0.15569	-0.1407
134.15	0.15413	-0.1406
134.2	0.15271	-0.1406
134.25	0.15268	-0.1406
134.3	0.15227	-0.1406
134.35	0.15147	-0.1406
134.4	0.14832	-0.1405
134.45	0.13167	-0.1398
134.5	0.11655	-0.1393
134.55	0.11453	-0.1393
134.6	0.11441	-0.1393
134.65	0.11432	-0.1393
134.7	0.11263	-0.139
134.75	0.09755	-0.1386
134.8	0.09555	-0.1384
134.85	0.09525	-0.1384
134.9	0.09366	-0.1383
134.95	0.09229	-0.1382
135.0	0.09114	-0.1382
135.05	0.08911	-0.1379
135.1	0.08037	-0.1375
135.15	0.07982	-0.1374
135.2	0.07805	-0.1372
135.25	0.07436	-0.1369
135.3	0.07416	-0.1369
135.35	0.07397	-0.1368
135.4	0.07149	-0.1364
135.45	0.06842	-0.1363
135.5	0.06682	-0.1361
135.55	0.061	-0.1355
135.6	0.05954	-0.1353
135.65	0.05939	-0.1353
135.7	0.05931	-0.1353
135.75	0.05923	-0.1353
135.8	0.05907	-0.1353
135.85	0.05598	-0.135
135.9	0.05547	-0.1348
135.95	0.05505	-0.1347
136.0	0.05505	-0.1347
136.05	0.05508	-0.1347
136.1	0.05501	-0.1347
136.15	0.0538	-0.1345
136.2	0.05266	-0.1343
136.25	0.05179	-0.1342
136.3	0.05125	-0.1341
136.35	0.0513	-0.1341
136.4	0.05125	-0.1341
136.45	0.04855	-0.1337
136.5	0.04776	-0.1333
136.55	0.04785	-0.1332
136.6	0.0477	-0.1332
136.65	0.04759	-0.1332
136.7	0.04782	-0.1332
136.75	0.04771	-0.1331
136.8	0.0471	-0.1328
136.85	0.04622	-0.1326
136.9	0.04611	-0.1325
136.95	0.04613	-0.1325
137.0	0.04643	-0.1325
137.05	0.04576	-0.1323
137.1	0.04517	-0.1319
137.15	0.04526	-0.1318
137.2	0.04533	-0.1318
137.25	0.04512	-0.1318
137.3	0.0452	-0.1316
137.35	0.0451	-0.1313
137.4	0.04532	-0.1311
137.45	0.04535	-0.1308
137.5	0.04567	-0.1308
137.55	0.04532	-0.1308
137.6	0.04536	-0.1308
137.65	0.04549	-0.1309
137.7	0.04559	-0.1309
137.75	0.04556	-0.1309
137.8	0.04526	-0.1309
137.85	0.04538	-0.1309
137.9	0.04536	-0.1309
137.95	0.04546	-0.1309
138.0	0.04546	-0.1309
138.05	0.04536	-0.1309
138.1	0.0452	-0.1309
138.15	0.04532	-0.1309
138.2	0.04497	-0.1312
138.25	0.0453	-0.1313
138.3	0.04536	-0.1315
138.35	0.04529	-0.1316
138.4	0.04546	-0.132
138.45	0.0453	-0.132
138.5	0.04532	-0.1319
138.55	0.04549	-0.1318
138.6	0.04538	-0.1315
138.65	0.04517	-0.1314
138.7	0.04529	-0.1311
138.75	0.04526	-0.1309
138.8	0.04575	-0.1306
138.85	0.04662	-0.13
138.9	0.04691	-0.1299
138.95	0.04726	-0.1298
139.0	0.04773	-0.1295
139.05	0.05006	-0.1286
139.1	0.05402	-0.1281
139.15	0.05389	-0.128
139.2	0.054	-0.1279
139.25	0.05418	-0.1279
139.3	0.05869	-0.1274
139.35	0.06329	-0.1266
139.4	0.06366	-0.1264
139.45	0.06433	-0.1262
139.5	0.06757	-0.1259
139.55	0.06801	-0.1258
139.6	0.07202	-0.1251
139.65	0.0759	-0.1246
139.7	0.07759	-0.1243
139.75	0.07841	-0.1242
139.8	0.07835	-0.1242
139.85	0.07838	-0.1242
139.9	0.07848	-0.1241
139.95	0.07959	-0.1237
140.0	0.08005	-0.1236
140.05	0.08055	-0.1235
140.1	0.08075	-0.1235
140.15	0.08054	-0.1235
140.2	0.08054	-0.1234
140.25	0.08115	-0.1231
140.3	0.08153	-0.1228
140.35	0.08109	-0.1228
140.4	0.08139	-0.1227
140.45	0.08118	-0.1227
140.5	0.08105	-0.1226
140.55	0.08066	-0.122
140.6	0.08017	-0.1216
140.65	0.08006	-0.1216
140.7	0.08011	-0.1216
140.75	0.08015	-0.1216
140.8	0.07979	-0.1216
140.85	0.07925	-0.121
140.9	0.07918	-0.1209
140.95	0.07944	-0.1209
141.0	0.07881	-0.1207
141.05	0.07861	-0.1205
141.1	0.07826	-0.1203
141.15	0.07784	-0.12
141.2	0.0775	-0.1198
141.25	0.07748	-0.1198
141.3	0.07733	-0.1198
141.35	0.07748	-0.1197
141.4	0.07635	-0.1189
141.45	0.07608	-0.1181
141.5	0.07597	-0.1179
141.55	0.07632	-0.1179
141.6	0.07623	-0.1179
141.65	0.0764	-0.1179
141.7	0.07632	-0.1177
141.75	0.07649	-0.1175
141.8	0.07646	-0.1173
141.85	0.07646	-0.1172
141.9	0.07663	-0.1172
141.95	0.07657	-0.1169
142.0	0.07721	-0.1165
142.05	0.07706	-0.1165
142.1	0.07721	-0.1165
142.15	0.07701	-0.1165
142.2	0.07692	-0.1165
142.25	0.07672	-0.1165
142.3	0.07634	-0.1165
142.35	0.07611	-0.1165
142.4	0.07599	-0.1165
142.45	0.07625	-0.1165
142.5	0.07616	-0.1165
142.55	0.07626	-0.1165
142.6	0.07639	-0.1165
142.65	0.07635	-0.1166
142.7	0.07628	-0.1168
142.75	0.07616	-0.1168
142.8	0.07648	-0.1168
142.85	0.07637	-0.1168
142.9	0.07596	-0.1169
142.95	0.07617	-0.117
143.0	0.07579	-0.117
143.05	0.07639	-0.1169
143.1	0.07727	-0.1168
143.15	0.0769	-0.1166
143.2	0.07716	-0.1165
143.25	0.07715	-0.1163
143.3	0.07744	-0.116
143.35	0.07906	-0.1149
143.4	0.07927	-0.1145
143.45	0.07909	-0.1145
143.5	0.07945	-0.1145
143.55	0.07915	-0.1144
143.6	0.07906	-0.1142
143.65	0.07947	-0.114
143.7	0.07968	-0.1137
143.75	0.07912	-0.1131
143.8	0.07896	-0.113
143.85	0.07829	-0.1127
143.9	0.07761	-0.1125
143.95	0.07784	-0.1125
144.0	0.07779	-0.1125
144.05	0.07648	-0.1123
144.1	0.07446	-0.1118
144.15	0.07382	-0.1116
144.2	0.07129	-0.111
144.25	0.06892	-0.1109
144.3	0.0687	-0.1109
144.35	0.06874	-0.1109
144.4	0.06857	-0.1108
144.45	0.06575	-0.1105
144.5	0.06541	-0.1104
144.55	0.06456	-0.1102
144.6	0.06288	-0.1099
144.65	0.05943	-0.1095
144.7	0.05885	-0.1093
144.75	0.05833	-0.1092
144.8	0.05736	-0.1089
144.85	0.05473	-0.1086
144.9	0.05452	-0.1084
144.95	0.05426	-0.1084
145.0	0.05341	-0.1079
145.05	0.05171	-0.1077
145.1	0.0517	-0.1076
145.15	0.05122	-0.1075
145.2	0.05081	-0.1072
145.25	0.04997	-0.107
145.3	0.04962	-0.1069
145.35	0.04924	-0.1067
145.4	0.04916	-0.1066
145.45	0.04892	-0.1065
145.5	0.04839	-0.106
145.55	0.04776	-0.1055
145.6	0.04727	-0.1051
145.65	0.0471	-0.105
145.7	0.04735	-0.1049
145.75	0.0473	-0.1048
145.8	0.04695	-0.1044
145.85	0.04677	-0.1042
145.9	0.04655	-0.1037
145.95	0.04642	-0.1033
146.0	0.04636	-0.1029
146.05	0.04649	-0.1026
146.1	0.04672	-0.1026
146.15	0.0464	-0.1026
146.2	0.04642	-0.1028
146.25	0.04654	-0.1028
146.3	0.0468	-0.1028
146.35	0.04648	-0.1028
146.4	0.04633	-0.1028
146.45	0.04637	-0.1028
146.5	0.04646	-0.1028
146.55	0.04649	-0.1028
146.6	0.04654	-0.1027
146.65	0.04659	-0.1027
146.7	0.04659	-0.1026
146.75	0.04703	-0.1023
146.8	0.04715	-0.1015
146.85	0.04707	-0.1014
146.9	0.04742	-0.1011
146.95	0.04764	-0.1006
147.0	0.04839	-0.1001
147.05	0.04887	-0.0995
147.1	0.04953	-0.0989
147.15	0.0497	-0.0984
147.2	0.05046	-0.098
147.25	0.05042	-0.0977
147.3	0.05049	-0.0975
147.35	0.0504	-0.0973
147.4	0.05104	-0.0971
147.45	0.05113	-0.0967
147.5	0.05141	-0.0966
147.55	0.05147	-0.0963
147.6	0.05205	-0.096
147.65	0.05196	-0.0958
147.7	0.05244	-0.0957
147.75	0.05269	-0.0954
147.8	0.05348	-0.0952
147.85	0.05389	-0.095
147.9	0.05424	-0.0948
147.95	0.05475	-0.0946
148.0	0.05481	-0.0945
148.05	0.05556	-0.0942
148.1	0.0574	-0.0937
148.15	0.05751	-0.0935
148.2	0.05809	-0.0934
148.25	0.05824	-0.0934
148.3	0.05817	-0.0934
148.35	0.05833	-0.0931
148.4	0.06038	-0.0929
148.45	0.06137	-0.0925
148.5	0.06236	-0.0921
148.55	0.06274	-0.092
148.6	0.06259	-0.092
148.65	0.06296	-0.0919
148.7	0.06322	-0.0917
148.75	0.0636	-0.0914
148.8	0.06403	-0.0913
148.85	0.06384	-0.0912
148.9	0.06383	-0.0908
148.95	0.06339	-0.0905
149.0	0.06349	-0.0905
149.05	0.06348	-0.0905
149.1	0.06354	-0.0905
149.15	0.06326	-0.0906
149.2	0.06354	-0.0906
149.25	0.06345	-0.0906
149.3	0.06328	-0.0906
149.35	0.06348	-0.0906
149.4	0.06314	-0.0906
149.45	0.06352	-0.0906
149.5	0.06371	-0.0906
149.55	0.06345	-0.0905
149.6	0.06207	-0.0902
149.65	0.06041	-0.0891
149.7	0.05896	-0.0882
149.75	0.05818	-0.0872
149.8	0.05763	-0.0863
149.85	0.05827	-0.0855
149.9	0.05916	-0.0845
149.95	0.05902	-0.0836
150.0	0.05894	-0.0832
150.05	0.05763	-0.0827
150.1	0.05705	-0.0823
150.15	0.05571	-0.0819
150.2	0.05429	-0.0813
150.25	0.05116	-0.0808
150.3	0.05014	-0.0801
150.35	0.04916	-0.0793
150.4	0.04771	-0.0784
150.45	0.04776	-0.0782
150.5	0.04761	-0.0782
150.55	0.04774	-0.0786
150.6	0.04826	-0.0788
150.65	0.04811	-0.0788
150.7	0.0482	-0.0788
150.75	0.04836	-0.0788
150.8	0.04855	-0.0788
150.85	0.04861	-0.0788
150.9	0.04861	-0.0788
150.95	0.04881	-0.0788
151.0	0.04877	-0.0786
151.05	0.04865	-0.0783
151.1	0.04803	-0.0776
151.15	0.04791	-0.0765
151.2	0.04692	-0.075
151.25	0.04654	-0.0735
151.3	0.04637	-0.072
151.35	0.0466	-0.0707
151.4	0.04723	-0.0698
151.45	0.04749	-0.0695
151.5	0.04823	-0.0688
151.55	0.04935	-0.0679
151.6	0.04993	-0.0671
151.65	0.05023	-0.066
151.7	0.05037	-0.0646
151.75	0.05037	-0.0642
151.8	0.05054	-0.0642
151.85	0.05029	-0.0643
151.9	0.05042	-0.0646
151.95	0.05042	-0.0646
152.0	0.05008	-0.0646
152.05	0.05017	-0.0646
152.1	0.0502	-0.0646
152.15	0.0502	-0.0646
152.2	0.04994	-0.0646
152.25	0.05034	-0.0645
152.3	0.05028	-0.0641
152.35	0.05061	-0.063
152.4	0.0531	-0.0609
152.45	0.05177	-0.0586
152.5	0.05106	-0.058
152.55	0.05112	-0.0565
152.6	0.05122	-0.0546
152.65	0.05045	-0.0533
152.7	0.04935	-0.0523
152.75	0.04846	-0.0517
152.8	0.04849	-0.0513
152.85	0.04793	-0.0503
152.9	0.04784	-0.0499
152.95	0.04764	-0.0499
153.0	0.0477	-0.05
153.05	0.04755	-0.0505
153.1	0.04773	-0.0505
153.15	0.04752	-0.0505
153.2	0.04761	-0.0505
153.25	0.04779	-0.0505
153.3	0.04774	-0.0504
153.35	0.04771	-0.0503
153.4	0.04764	-0.05
153.45	0.04718	-0.0483
153.5	0.04674	-0.0467
153.55	0.04657	-0.0458
153.6	0.04662	-0.0442
153.65	0.04678	-0.043
153.7	0.04666	-0.0422
153.75	0.04736	-0.041
153.8	0.04779	-0.0397
153.85	0.04834	-0.0388
153.9	0.04877	-0.0375
153.95	0.04893	-0.0367
154.0	0.0491	-0.0365
154.05	0.04883	-0.0362
154.1	0.04901	-0.0354
154.15	0.04906	-0.0351
154.2	0.04924	-0.0351
154.25	0.04941	-0.0352
154.3	0.04932	-0.0354
154.35	0.04951	-0.0354
154.4	0.04951	-0.0354
154.45	0.04933	-0.0354
154.5	0.0493	-0.0354
154.55	0.04944	-0.0353
154.6	0.04944	-0.035
154.65	0.05017	-0.0338
154.7	0.05066	-0.0319
154.75	0.04993	-0.0302
154.8	0.05009	-0.0284
154.85	0.04953	-0.0261
154.9	0.04863	-0.0239
154.95	0.04857	-0.0222
155.0	0.04773	-0.0202
155.05	0.04739	-0.0185
155.1	0.04729	-0.0183
155.15	0.04733	-0.0183
155.2	0.04726	-0.0183
155.25	0.04727	-0.0184
155.3	0.04758	-0.0184
155.35	0.04727	-0.0184
155.4	0.04721	-0.0184
155.45	0.04753	-0.0184
155.5	0.04726	-0.0184
155.55	0.04718	-0.0184
155.6	0.04738	-0.0179
155.65	0.04771	-0.0156
155.7	0.04837	-0.0127
155.75	0.04932	-0.0102
155.8	0.05023	-0.0077
155.85	0.05014	-0.0052
155.9	0.0509	-0.0033
155.95	0.05061	-0.00080625
156.0	0.05055	-5.8655e-17
156.05	0.05069	-5.8655e-17
156.1	0.05054	-5.8655e-17
156.15	0.05049	-5.8655e-17
156.2	0.05034	-5.8655e-17
156.25	0.05058	-3.75e-05
156.3	0.05064	-3.75e-05
156.35	0.05049	-3.75e-05
156.4	0.0506	-3.75e-05
156.45	0.05038	-3.75e-05
156.5	0.05029	-3.75e-05
156.55	0.05057	-3.75e-05
156.6	0.05043	-3.75e-05
156.65	0.05037	-3.75e-05
156.7	0.05049	-3.75e-05
156.75	0.05052	-3.75e-05
156.8	0.05074	-3.75e-05
156.85	0.05055	-3.75e-05
156.9	0.05051	-3.75e-05
156.95	0.05061	-3.75e-05
157.0	0.05057	-3.75e-05
157.05	0.05083	-3.75e-05
157.1	0.05069	-3.75e-05
157.15	0.05093	-3.75e-05
157.2	0.05026	-3.75e-05
157.25	0.04999	-3.75e-05
157.3	0.04985	-3.75e-05
157.35	0.05011	-3.75e-05
157.4	0.05054	-3.75e-05
157.45	0.05038	-3.75e-05
157.5	0.05063	-3.75e-05
157.55	0.0506	-3.75e-05
157.6	0.05055	-3.75e-05
157.65	0.05048	-3.75e-05
157.7	0.05008	-3.75e-05
157.75	0.05014	-3.75e-05
157.8	0.05029	-3.75e-05
157.85	0.05051	-3.75e-05
157.9	0.05026	-3.75e-05
157.95	0.04997	-3.75e-05
158.0	0.05043	-3.75e-05
158.05	0.0504	-3.75e-05
158.1	0.05023	-3.75e-05
158.15	0.05038	-3.75e-05
158.2	0.05046	-3.75e-05
158.25	0.05031	-3.75e-05
