Time (s)	Light Intensity (% of scale max)	Position (m)
0.0	0.09128	0.0
0.05	0.09134	0.0
0.1	0.09131	0.0
0.15	0.09135	0.0
0.2	0.09134	0.0
0.25	0.09142	0.0
0.3	0.0912	0.0
0.35	0.09132	0.0
0.4	0.09128	0.0
0.45	0.09151	0.0
0.5	0.09103	0.0
0.55	0.09116	0.0
0.6	0.09084	0.0
0.65	0.09068	0.0
0.7	0.09087	0.0
0.75	0.0912	0.0
0.8	0.09277	0.0
0.85	0.09346	0.0
0.9	0.0925	-1.875e-05
0.95	0.09122	-0.00017813
1.0	0.09088	-0.00075
1.05	0.09108	-0.0018
1.1	0.09097	-0.0026
1.15	0.09096	-0.0037
1.2	0.09084	-0.005
1.25	0.09064	-0.0063
1.3	0.09065	-0.0078
1.35	0.09024	-0.0095
1.4	0.09012	-0.0109
1.45	0.09	-0.012
1.5	0.08977	-0.0126
1.55	0.08974	-0.0135
1.6	0.08939	-0.015
1.65	0.08942	-0.0167
1.7	0.08949	-0.0183
1.75	0.08936	-0.0192
1.8	0.0892	-0.0193
1.85	0.0896	-0.0193
1.9	0.08994	-0.0192
1.95	0.0899	-0.0191
2.0	0.08981	-0.0191
2.05	0.08965	-0.0191
2.1	0.08966	-0.0191
2.15	0.08984	-0.0191
2.2	0.08981	-0.0191
2.25	0.08961	-0.0191
2.3	0.0898	-0.0193
2.35	0.08978	-0.0196
2.4	0.08969	-0.0202
2.45	0.08942	-0.0215
2.5	0.0898	-0.0229
2.55	0.08923	-0.024
2.6	0.08902	-0.0249
2.65	0.08928	-0.0261
2.7	0.08926	-0.0269
2.75	0.08902	-0.0274
2.8	0.08971	-0.0285
2.85	0.08983	-0.0297
2.9	0.09	-0.0308
2.95	0.09009	-0.0319
3.0	0.08972	-0.0328
3.05	0.08954	-0.0333
3.1	0.08957	-0.0339
3.15	0.0896	-0.0344
3.2	0.08929	-0.0344
3.25	0.08955	-0.0344
3.3	0.08932	-0.0344
3.35	0.08939	-0.0344
3.4	0.08934	-0.0344
3.45	0.08945	-0.0344
3.5	0.08908	-0.0344
3.55	0.08905	-0.0343
3.6	0.08882	-0.0343
3.65	0.08871	-0.0343
3.7	0.089	-0.0345
3.75	0.08922	-0.0354
3.8	0.08928	-0.0372
3.85	0.08936	-0.0384
3.9	0.08955	-0.0394
3.95	0.08928	-0.0404
4.0	0.08911	-0.0414
4.05	0.08885	-0.043
4.1	0.08923	-0.0443
4.15	0.08897	-0.0458
4.2	0.08875	-0.0478
4.25	0.08893	-0.0488
4.3	0.08911	-0.0496
4.35	0.08864	-0.0505
4.4	0.08859	-0.0516
4.45	0.08865	-0.0525
4.5	0.08861	-0.0524
4.55	0.08821	-0.0519
4.6	0.08833	-0.0518
4.65	0.08832	-0.0518
4.7	0.08844	-0.0518
4.75	0.08818	-0.0518
4.8	0.08972	-0.0518
4.85	0.09079	-0.0518
4.9	0.09006	-0.0518
4.95	0.08914	-0.0521
5.0	0.08885	-0.0523
5.05	0.08888	-0.0534
5.1	0.089	-0.0547
5.15	0.08875	-0.0555
5.2	0.08875	-0.0569
5.25	0.0887	-0.0591
5.3	0.0885	-0.0605
5.35	0.0883	-0.0608
5.4	0.08846	-0.0612
5.45	0.08853	-0.0621
5.5	0.0883	-0.0628
5.55	0.08804	-0.0638
5.6	0.08795	-0.0651
5.65	0.08766	-0.0663
5.7	0.08795	-0.0678
5.75	0.08794	-0.069
5.8	0.08809	-0.07
5.85	0.08829	-0.0707
5.9	0.08824	-0.0708
5.95	0.0882	-0.0706
6.0	0.0882	-0.0705
6.05	0.08803	-0.0705
6.1	0.08829	-0.0705
6.15	0.08774	-0.0705
6.2	0.08806	-0.0705
6.25	0.08806	-0.0705
6.3	0.08798	-0.0706
6.35	0.08775	-0.0706
6.4	0.08783	-0.0711
6.45	0.08789	-0.0726
6.5	0.08783	-0.0738
6.55	0.08755	-0.075
6.6	0.08707	-0.0763
6.65	0.08717	-0.0777
6.7	0.08696	-0.0789
6.75	0.0869	-0.0803
6.8	0.08757	-0.0814
6.85	0.08748	-0.0823
6.9	0.08759	-0.083
6.95	0.08765	-0.0841
7.0	0.0874	-0.0854
7.05	0.08723	-0.0862
7.1	0.08731	-0.0874
7.15	0.08678	-0.0884
7.2	0.08696	-0.0892
7.25	0.08685	-0.0897
7.3	0.08672	-0.0897
7.35	0.08705	-0.0895
7.4	0.08673	-0.0895
7.45	0.08682	-0.0895
7.5	0.08705	-0.0895
7.55	0.08574	-0.0895
7.6	0.08493	-0.0894
7.65	0.08704	-0.0894
7.7	0.08644	-0.0895
7.75	0.0867	-0.0899
7.8	0.0867	-0.0909
7.85	0.08694	-0.0922
7.9	0.08739	-0.0935
7.95	0.0873	-0.0949
8.0	0.08727	-0.0963
8.05	0.08694	-0.0974
8.1	0.08694	-0.0984
8.15	0.08669	-0.0996
8.2	0.0867	-0.1005
8.25	0.08673	-0.1017
8.3	0.0869	-0.1027
8.35	0.08659	-0.1037
8.4	0.08688	-0.1048
8.45	0.08664	-0.1056
8.5	0.08669	-0.1065
8.55	0.08665	-0.1079
8.6	0.0865	-0.1088
8.65	0.08621	-0.1086
8.7	0.08601	-0.1082
8.75	0.08629	-0.1082
8.8	0.08641	-0.1082
8.85	0.08678	-0.1082
8.9	0.08704	-0.1082
8.95	0.08733	-0.1082
9.0	0.08699	-0.1082
9.05	0.08702	-0.1081
9.1	0.08685	-0.1081
9.15	0.08681	-0.1082
9.2	0.08665	-0.1087
9.25	0.08707	-0.1097
9.3	0.08672	-0.1114
9.35	0.08699	-0.1128
9.4	0.08679	-0.114
9.45	0.08687	-0.1152
9.5	0.08682	-0.1161
9.55	0.08655	-0.117
9.6	0.08684	-0.1184
9.65	0.08653	-0.1194
9.7	0.0864	-0.1206
9.75	0.08636	-0.1214
9.8	0.0865	-0.1217
9.85	0.0871	-0.1227
9.9	0.08727	-0.1233
9.95	0.08754	-0.1234
10.0	0.08734	-0.1232
10.05	0.0872	-0.1228
10.1	0.0869	-0.1228
10.15	0.08702	-0.1228
10.2	0.08693	-0.1228
10.25	0.08682	-0.1228
10.3	0.08711	-0.1228
10.35	0.08685	-0.1228
10.4	0.08688	-0.1228
10.45	0.08665	-0.1228
10.5	0.08673	-0.1229
10.55	0.08673	-0.1235
10.6	0.08693	-0.1247
10.65	0.0865	-0.1264
10.7	0.08656	-0.1275
10.75	0.0862	-0.1288
10.8	0.08682	-0.1305
10.85	0.08672	-0.1317
10.9	0.08679	-0.133
10.95	0.0869	-0.1343
11.0	0.08745	-0.1352
11.05	0.08769	-0.1359
11.1	0.08731	-0.1365
11.15	0.08759	-0.1373
11.2	0.08723	-0.1387
11.25	0.08713	-0.1395
11.3	0.08723	-0.1396
11.35	0.08694	-0.1391
11.4	0.08682	-0.1389
11.45	0.08708	-0.1389
11.5	0.08714	-0.1389
11.55	0.08705	-0.1389
11.6	0.08714	-0.1389
11.65	0.08633	-0.1389
11.7	0.08714	-0.1389
11.75	0.08659	-0.139
11.8	0.08675	-0.1396
11.85	0.08705	-0.1409
11.9	0.08736	-0.1427
11.95	0.08728	-0.1441
12.0	0.08745	-0.145
12.05	0.08809	-0.1462
12.1	0.08798	-0.1474
12.15	0.08751	-0.1487
12.2	0.08746	-0.1502
12.25	0.08755	-0.151
12.3	0.08737	-0.1516
12.35	0.08743	-0.1526
12.4	0.08716	-0.1536
12.45	0.08727	-0.1546
12.5	0.08733	-0.1553
12.55	0.08748	-0.1554
12.6	0.08786	-0.1552
12.65	0.0874	-0.1545
12.7	0.08745	-0.1545
12.75	0.08755	-0.1545
12.8	0.08694	-0.1545
12.85	0.08623	-0.1545
12.9	0.08708	-0.1545
12.95	0.08812	-0.1545
13.0	0.08789	-0.1545
13.05	0.0889	-0.1548
13.1	0.08865	-0.1553
13.15	0.08858	-0.1565
13.2	0.08804	-0.1585
13.25	0.08795	-0.1603
13.3	0.08791	-0.1618
13.35	0.08795	-0.1637
13.4	0.0882	-0.1655
13.45	0.08788	-0.1669
13.5	0.08801	-0.1683
13.55	0.08809	-0.1692
13.6	0.08815	-0.1701
13.65	0.08804	-0.1707
13.7	0.08774	-0.1714
13.75	0.08743	-0.1717
13.8	0.0876	-0.1718
13.85	0.08766	-0.1717
13.9	0.08804	-0.1717
13.95	0.08833	-0.1716
14.0	0.08849	-0.1716
14.05	0.08908	-0.1716
14.1	0.08878	-0.1716
14.15	0.08846	-0.1716
14.2	0.08881	-0.1717
14.25	0.08868	-0.172
14.3	0.08855	-0.1733
14.35	0.08879	-0.1753
14.4	0.08846	-0.1773
14.45	0.08867	-0.1791
14.5	0.08876	-0.181
14.55	0.08856	-0.1824
14.6	0.08864	-0.1836
14.65	0.08833	-0.1848
14.7	0.08823	-0.186
14.75	0.08838	-0.1871
14.8	0.08836	-0.188
14.85	0.08809	-0.188
14.9	0.08841	-0.1879
14.95	0.08844	-0.1877
15.0	0.08917	-0.1876
15.05	0.08946	-0.1876
15.1	0.08963	-0.1876
15.15	0.09015	-0.1876
15.2	0.08888	-0.1876
15.25	0.08794	-0.1876
15.3	0.08839	-0.1876
15.35	0.08884	-0.1877
15.4	0.08882	-0.1881
15.45	0.089	-0.1895
15.5	0.08913	-0.1913
15.55	0.08893	-0.1934
15.6	0.08904	-0.1958
15.65	0.08891	-0.1982
15.7	0.08873	-0.1997
15.75	0.08832	-0.201
15.8	0.0885	-0.2026
15.85	0.08832	-0.204
15.9	0.08838	-0.2046
15.95	0.0885	-0.205
16.0	0.08897	-0.2052
16.05	0.08946	-0.2051
16.1	0.08981	-0.2049
16.15	0.08957	-0.2047
16.2	0.08928	-0.2047
16.25	0.089	-0.2047
16.3	0.09009	-0.2047
16.35	0.08911	-0.2047
16.4	0.08922	-0.2047
16.45	0.08905	-0.2047
16.5	0.08945	-0.2047
16.55	0.08949	-0.2049
16.6	0.08926	-0.2053
16.65	0.08931	-0.2074
16.7	0.08928	-0.2091
16.75	0.08923	-0.2104
16.8	0.0892	-0.2119
16.85	0.08891	-0.2131
16.9	0.08861	-0.2148
16.95	0.08882	-0.2166
17.0	0.08876	-0.2178
17.05	0.08926	-0.2194
17.1	0.08942	-0.2205
17.15	0.08972	-0.2209
17.2	0.08978	-0.2209
17.25	0.08971	-0.2207
17.3	0.08948	-0.2202
17.35	0.08931	-0.2201
17.4	0.08893	-0.2201
17.45	0.08926	-0.2201
17.5	0.08934	-0.2201
17.55	0.08945	-0.2201
17.6	0.08945	-0.2201
17.65	0.08922	-0.2201
17.7	0.08867	-0.2201
17.75	0.0892	-0.2202
17.8	0.0892	-0.2207
17.85	0.08914	-0.2213
17.9	0.08904	-0.2228
17.95	0.08899	-0.2243
18.0	0.08905	-0.2259
18.05	0.08913	-0.2271
18.1	0.08968	-0.2284
18.15	0.08986	-0.2298
18.2	0.08998	-0.2315
18.25	0.08995	-0.2328
18.3	0.0898	-0.2342
18.35	0.09012	-0.2358
18.4	0.08977	-0.2371
18.45	0.08984	-0.2381
18.5	0.08971	-0.2384
18.55	0.08997	-0.2382
18.6	0.08977	-0.2379
18.65	0.08992	-0.2379
18.7	0.08949	-0.2379
18.75	0.0896	-0.2379
18.8	0.08916	-0.2379
18.85	0.08913	-0.2379
18.9	0.08945	-0.2379
18.95	0.089	-0.2381
19.0	0.08955	-0.2389
19.05	0.09006	-0.2409
19.1	0.09048	-0.2426
19.15	0.0903	-0.2442
19.2	0.09042	-0.2461
19.25	0.09004	-0.2479
19.3	0.09018	-0.2489
19.35	0.08989	-0.25
19.4	0.09033	-0.2511
19.45	0.09009	-0.2523
19.5	0.0901	-0.2538
19.55	0.09012	-0.2551
19.6	0.09012	-0.2556
19.65	0.09012	-0.2554
19.7	0.08984	-0.2547
19.75	0.08995	-0.2545
19.8	0.08977	-0.2545
19.85	0.08842	-0.2545
19.9	0.08833	-0.2545
19.95	0.09181	-0.2545
20.0	0.09006	-0.2545
20.05	0.09061	-0.2546
20.1	0.09108	-0.2549
20.15	0.09079	-0.2556
20.2	0.0907	-0.2572
20.25	0.09052	-0.2593
20.3	0.09032	-0.2614
20.35	0.0907	-0.2635
20.4	0.09059	-0.2649
20.45	0.09068	-0.2659
20.5	0.0905	-0.2672
20.55	0.09059	-0.2682
20.6	0.09079	-0.2695
20.65	0.09032	-0.2703
20.7	0.09039	-0.2707
20.75	0.09065	-0.2708
20.8	0.09056	-0.2707
20.85	0.08955	-0.27
20.9	0.09013	-0.27
20.95	0.09015	-0.27
21.0	0.09157	-0.27
21.05	0.09154	-0.27
21.1	0.09148	-0.27
21.15	0.09085	-0.27
21.2	0.09036	-0.2706
21.25	0.09074	-0.2719
21.3	0.09048	-0.2744
21.35	0.0905	-0.2769
21.4	0.09109	-0.2796
21.45	0.09105	-0.2821
21.5	0.09114	-0.2834
21.55	0.09085	-0.2844
21.6	0.09087	-0.2856
21.65	0.09102	-0.2863
21.7	0.09084	-0.2872
21.75	0.09045	-0.2879
21.8	0.09041	-0.288
21.85	0.09062	-0.2878
21.9	0.09064	-0.2874
21.95	0.09138	-0.2874
22.0	0.09149	-0.2874
22.05	0.09203	-0.2874
22.1	0.09221	-0.2874
22.15	0.091	-0.2874
22.2	0.09125	-0.2874
22.25	0.09137	-0.2874
22.3	0.09113	-0.2875
22.35	0.09137	-0.2883
22.4	0.09135	-0.2904
22.45	0.09148	-0.2925
22.5	0.09131	-0.2945
22.55	0.09149	-0.2962
22.6	0.09169	-0.2978
22.65	0.0916	-0.2997
22.7	0.09125	-0.3015
22.75	0.0916	-0.3028
22.8	0.09151	-0.3037
22.85	0.09128	-0.3048
22.9	0.09125	-0.3051
22.95	0.09181	-0.3049
23.0	0.09152	-0.3046
23.05	0.09271	-0.3046
23.1	0.09283	-0.3046
23.15	0.09262	-0.3046
23.2	0.09282	-0.3046
23.25	0.09251	-0.3046
23.3	0.09219	-0.3046
23.35	0.09184	-0.3046
23.4	0.09218	-0.3046
23.45	0.09225	-0.305
23.5	0.09224	-0.3062
23.55	0.09222	-0.3081
23.6	0.09253	-0.3101
23.65	0.09247	-0.3121
23.7	0.09285	-0.3139
23.75	0.09273	-0.3155
23.8	0.09259	-0.3169
23.85	0.09274	-0.3178
23.9	0.09274	-0.3188
23.95	0.09254	-0.3195
24.0	0.09215	-0.3197
24.05	0.09236	-0.3196
24.1	0.09273	-0.3195
24.15	0.09334	-0.3195
24.2	0.09355	-0.3195
24.25	0.09355	-0.3195
24.3	0.09326	-0.3195
24.35	0.09322	-0.3195
24.4	0.09309	-0.3195
24.45	0.09328	-0.3195
24.5	0.09309	-0.32
24.55	0.09303	-0.3216
24.6	0.09334	-0.3237
24.65	0.09323	-0.3251
24.7	0.09332	-0.3267
24.75	0.0932	-0.3282
24.8	0.09312	-0.3294
24.85	0.09358	-0.3307
24.9	0.09326	-0.3317
24.95	0.09319	-0.3321
25.0	0.09334	-0.3322
25.05	0.09322	-0.3318
25.1	0.09277	-0.3317
25.15	0.09328	-0.3317
25.2	0.09357	-0.3317
25.25	0.09433	-0.3317
25.3	0.09412	-0.3317
25.35	0.09409	-0.3317
25.4	0.09377	-0.3317
25.45	0.09377	-0.3317
25.5	0.09357	-0.3324
25.55	0.09415	-0.3339
25.6	0.09387	-0.3362
25.65	0.09369	-0.3378
25.7	0.09386	-0.3392
25.75	0.0939	-0.3404
25.8	0.09413	-0.3408
25.85	0.09389	-0.3408
25.9	0.09395	-0.3408
25.95	0.0939	-0.3408
26.0	0.09377	-0.3408
26.05	0.09367	-0.3405
26.1	0.09334	-0.3402
26.15	0.09315	-0.3402
26.2	0.09341	-0.3402
26.25	0.09352	-0.3402
26.3	0.09393	-0.3402
26.35	0.09454	-0.3402
26.4	0.09438	-0.3402
26.45	0.09454	-0.3395
26.5	0.09422	-0.339
26.55	0.09431	-0.3385
26.6	0.09418	-0.3375
26.65	0.0941	-0.3367
26.7	0.09413	-0.3363
26.75	0.09424	-0.3363
26.8	0.09396	-0.3363
26.85	0.09418	-0.336
26.9	0.09393	-0.3352
26.95	0.09387	-0.334
27.0	0.09375	-0.3327
27.05	0.09367	-0.3321
27.1	0.0934	-0.3321
27.15	0.09358	-0.3321
27.2	0.09363	-0.3321
27.25	0.09355	-0.3321
27.3	0.09377	-0.3321
27.35	0.09375	-0.3321
27.4	0.09406	-0.3321
27.45	0.09413	-0.3321
27.5	0.09435	-0.3321
27.55	0.09453	-0.3321
27.6	0.09413	-0.3321
27.65	0.09384	-0.332
27.7	0.09367	-0.3313
27.75	0.09384	-0.3304
27.8	0.09369	-0.3294
27.85	0.09357	-0.3281
27.9	0.09323	-0.3268
27.95	0.09329	-0.3255
28.0	0.0932	-0.324
28.05	0.09297	-0.3238
28.1	0.0932	-0.3237
28.15	0.09326	-0.3237
28.2	0.09299	-0.3239
28.25	0.0929	-0.3239
28.3	0.09285	-0.3239
28.35	0.0928	-0.3239
28.4	0.09308	-0.3239
28.45	0.09319	-0.3239
28.5	0.09343	-0.3239
28.55	0.09407	-0.3239
28.6	0.09396	-0.3238
28.65	0.09366	-0.3238
28.7	0.09343	-0.3235
28.75	0.09367	-0.3231
28.8	0.09328	-0.3221
28.85	0.093	-0.3206
28.9	0.09314	-0.3189
28.95	0.09332	-0.3178
29.0	0.09311	-0.3173
29.05	0.09328	-0.3168
29.1	0.09308	-0.3165
29.15	0.09256	-0.3164
29.2	0.09253	-0.3164
29.25	0.09261	-0.3167
29.3	0.09251	-0.3167
29.35	0.09227	-0.3167
29.4	0.09221	-0.3167
29.45	0.09251	-0.3167
29.5	0.09309	-0.3167
29.55	0.0932	-0.3167
29.6	0.09337	-0.3167
29.65	0.09315	-0.3167
29.7	0.09305	-0.3165
29.75	0.093	-0.316
29.8	0.09279	-0.3151
29.85	0.09262	-0.3134
29.9	0.09256	-0.3118
29.95	0.09262	-0.3108
30.0	0.09253	-0.3103
30.05	0.09274	-0.3098
30.1	0.09267	-0.3093
30.15	0.09251	-0.3092
30.2	0.09258	-0.3092
30.25	0.09204	-0.3092
30.3	0.09204	-0.3096
30.35	0.09232	-0.3099
30.4	0.09221	-0.3099
30.45	0.0921	-0.3099
30.5	0.092	-0.3099
30.55	0.09248	-0.3099
30.6	0.09279	-0.3099
30.65	0.0929	-0.3099
30.7	0.09303	-0.3096
30.75	0.0929	-0.309
30.8	0.09299	-0.3077
30.85	0.09247	-0.3058
30.9	0.09236	-0.3037
30.95	0.09224	-0.3022
31.0	0.09213	-0.3012
31.05	0.09232	-0.3004
31.1	0.09241	-0.2996
31.15	0.09219	-0.2992
31.2	0.09222	-0.2991
31.25	0.09152	-0.2991
31.3	0.09167	-0.2994
31.35	0.09157	-0.2998
31.4	0.09171	-0.2998
31.45	0.09178	-0.2998
31.5	0.09178	-0.2998
31.55	0.09154	-0.2998
31.6	0.09195	-0.2999
31.65	0.09233	-0.2999
31.7	0.09293	-0.2998
31.75	0.09299	-0.2994
31.8	0.09238	-0.2988
31.85	0.09227	-0.2975
31.9	0.09204	-0.2956
31.95	0.09195	-0.2935
32.0	0.09229	-0.2922
32.05	0.09178	-0.2904
32.1	0.0918	-0.2895
32.15	0.09184	-0.2889
32.2	0.09213	-0.2886
32.25	0.09193	-0.2886
32.3	0.09189	-0.2888
32.35	0.0921	-0.2897
32.4	0.09195	-0.29
32.45	0.09195	-0.29
32.5	0.09184	-0.29
32.55	0.09207	-0.29
32.6	0.09229	-0.29
32.65	0.09235	-0.29
32.7	0.09262	-0.29
32.75	0.09276	-0.2899
32.8	0.09254	-0.2895
32.85	0.09245	-0.2888
32.9	0.0921	-0.288
32.95	0.09189	-0.2865
33.0	0.09172	-0.2848
33.05	0.0916	-0.2832
33.1	0.09123	-0.2824
33.15	0.09151	-0.282
33.2	0.09163	-0.2816
33.25	0.09132	-0.2816
33.3	0.09103	-0.282
33.35	0.09138	-0.2828
33.4	0.09122	-0.2829
33.45	0.09113	-0.2829
33.5	0.09071	-0.2829
33.55	0.09096	-0.2829
33.6	0.09085	-0.2829
33.65	0.09108	-0.2828
33.7	0.09155	-0.2825
33.75	0.09138	-0.2821
33.8	0.09186	-0.2815
33.85	0.09169	-0.2804
33.9	0.09132	-0.2788
33.95	0.09111	-0.2768
34.0	0.09079	-0.2745
34.05	0.09085	-0.2723
34.1	0.09091	-0.271
34.15	0.0909	-0.2696
34.2	0.09053	-0.2685
34.25	0.09105	-0.2676
34.3	0.09097	-0.2674
34.35	0.0905	-0.2675
34.4	0.09061	-0.2686
34.45	0.09044	-0.2686
34.5	0.09052	-0.2686
34.55	0.09047	-0.2686
34.6	0.09036	-0.2686
34.65	0.09041	-0.2686
34.7	0.09047	-0.2686
34.75	0.09103	-0.2685
34.8	0.09117	-0.2677
34.85	0.09166	-0.2663
34.9	0.09122	-0.2645
34.95	0.09076	-0.2626
35.0	0.09094	-0.2606
35.05	0.09059	-0.2584
35.1	0.09059	-0.2563
35.15	0.09067	-0.255
35.2	0.09067	-0.2543
35.25	0.09067	-0.2541
35.3	0.09067	-0.2541
35.35	0.0903	-0.2545
35.4	0.09045	-0.2557
35.45	0.09059	-0.2557
35.5	0.09033	-0.2557
35.55	0.0903	-0.2557
35.6	0.09027	-0.2557
35.65	0.08998	-0.2557
35.7	0.09039	-0.2555
35.75	0.09033	-0.255
35.8	0.09036	-0.2541
35.85	0.09091	-0.2527
35.9	0.09111	-0.2508
35.95	0.09099	-0.2489
36.0	0.09059	-0.2465
36.05	0.09036	-0.2449
36.1	0.09024	-0.2434
36.15	0.09029	-0.2421
36.2	0.09015	-0.2412
36.25	0.09044	-0.2403
36.3	0.09042	-0.2402
36.35	0.08977	-0.2406
36.4	0.09007	-0.2409
36.45	0.09027	-0.2409
36.5	0.0899	-0.2409
36.55	0.08981	-0.2409
36.6	0.08966	-0.2409
36.65	0.08986	-0.2409
36.7	0.08972	-0.2407
36.75	0.08992	-0.2398
36.8	0.09004	-0.2385
36.85	0.09041	-0.2369
36.9	0.09067	-0.2352
36.95	0.09035	-0.2333
37.0	0.09033	-0.2316
37.05	0.09003	-0.2296
37.1	0.08974	-0.2284
37.15	0.09013	-0.2278
37.2	0.08978	-0.2276
37.25	0.08987	-0.2276
37.3	0.08992	-0.2282
37.35	0.08989	-0.2289
37.4	0.08995	-0.229
37.45	0.09012	-0.229
37.5	0.08983	-0.229
37.55	0.08984	-0.229
37.6	0.08971	-0.229
37.65	0.08972	-0.2288
37.7	0.08942	-0.2282
37.75	0.08978	-0.2275
37.8	0.09007	-0.2268
37.85	0.09047	-0.2256
37.9	0.09045	-0.2236
37.95	0.09007	-0.2216
38.0	0.09026	-0.2199
38.05	0.09013	-0.2186
38.1	0.09004	-0.2179
38.15	0.08998	-0.217
38.2	0.0901	-0.2162
38.25	0.08989	-0.2162
38.3	0.08984	-0.2169
38.35	0.08978	-0.2179
38.4	0.08981	-0.2179
38.45	0.08995	-0.2179
38.5	0.08966	-0.2179
38.55	0.08983	-0.2179
38.6	0.08946	-0.2179
38.65	0.08969	-0.2173
38.7	0.08896	-0.2168
38.75	0.0894	-0.2158
38.8	0.08965	-0.2141
38.85	0.09007	-0.2124
38.9	0.09009	-0.2108
38.95	0.09007	-0.2092
39.0	0.08989	-0.2081
39.05	0.09	-0.2075
39.1	0.08974	-0.2073
39.15	0.08961	-0.2073
39.2	0.08969	-0.2073
39.25	0.08966	-0.208
39.3	0.08968	-0.2083
39.35	0.08954	-0.2083
39.4	0.0899	-0.2083
39.45	0.08989	-0.2083
39.5	0.0898	-0.2083
39.55	0.08949	-0.2083
39.6	0.08975	-0.2082
39.65	0.08928	-0.2078
39.7	0.08937	-0.2073
39.75	0.08916	-0.2062
39.8	0.08957	-0.2044
39.85	0.09018	-0.2022
39.9	0.09047	-0.2004
39.95	0.09047	-0.1986
40.0	0.09009	-0.1968
40.05	0.08987	-0.1961
40.1	0.09024	-0.196
40.15	0.08987	-0.1959
40.2	0.08977	-0.1959
40.25	0.08994	-0.1966
40.3	0.08987	-0.1971
40.35	0.08987	-0.1971
40.4	0.08969	-0.1971
40.45	0.08975	-0.1971
40.5	0.08998	-0.1971
40.55	0.08954	-0.1971
40.6	0.08899	-0.1965
40.65	0.08908	-0.196
40.7	0.08891	-0.1952
40.75	0.08958	-0.1935
40.8	0.08992	-0.1918
40.85	0.09035	-0.1897
40.9	0.09027	-0.1879
40.95	0.09059	-0.1865
41.0	0.09096	-0.1853
41.05	0.09047	-0.1848
41.1	0.09053	-0.1848
41.15	0.0892	-0.1852
41.2	0.09038	-0.1859
41.25	0.08995	-0.1859
41.3	0.08998	-0.1859
41.35	0.09009	-0.1859
41.4	0.09024	-0.1859
41.45	0.09012	-0.1859
41.5	0.08983	-0.1859
41.55	0.09	-0.1857
41.6	0.08966	-0.1853
41.65	0.09003	-0.1849
41.7	0.08948	-0.1841
41.75	0.08946	-0.1828
41.8	0.08989	-0.181
41.85	0.09047	-0.1792
41.9	0.09068	-0.1781
41.95	0.09091	-0.1773
42.0	0.09079	-0.1763
42.05	0.0907	-0.1755
42.1	0.09038	-0.1754
42.15	0.09012	-0.1754
42.2	0.08949	-0.1756
42.25	0.09026	-0.1762
42.3	0.09027	-0.1762
42.35	0.09023	-0.1762
42.4	0.09035	-0.1762
42.45	0.09032	-0.1762
42.5	0.09019	-0.1761
42.55	0.09035	-0.1761
42.6	0.08961	-0.1755
42.65	0.08983	-0.1747
42.7	0.09012	-0.1732
42.75	0.0896	-0.1718
42.8	0.09042	-0.1703
42.85	0.09026	-0.169
42.9	0.0905	-0.1676
42.95	0.09085	-0.1668
43.0	0.09091	-0.1658
43.05	0.09074	-0.1651
43.1	0.09044	-0.1648
43.15	0.09036	-0.1647
43.2	0.09071	-0.1647
43.25	0.0903	-0.165
43.3	0.09068	-0.165
43.35	0.09065	-0.165
43.4	0.09079	-0.165
43.45	0.09076	-0.165
43.5	0.0907	-0.165
43.55	0.09074	-0.165
43.6	0.09059	-0.1648
43.65	0.0907	-0.1641
43.7	0.09055	-0.1625
43.75	0.09048	-0.1609
43.8	0.0909	-0.1596
43.85	0.09146	-0.1581
43.9	0.09177	-0.1568
43.95	0.09175	-0.1557
44.0	0.09169	-0.1548
44.05	0.09106	-0.1547
44.1	0.09126	-0.1543
44.15	0.09111	-0.1538
44.2	0.09119	-0.1534
44.25	0.09142	-0.1529
44.3	0.0912	-0.1528
44.35	0.09071	-0.1529
44.4	0.09117	-0.1536
44.45	0.09129	-0.1536
44.5	0.09117	-0.1536
44.55	0.09122	-0.1536
44.6	0.09126	-0.1536
44.65	0.09106	-0.1536
44.7	0.09082	-0.1535
44.75	0.09097	-0.1533
44.8	0.09076	-0.1529
44.85	0.09108	-0.1521
44.9	0.0912	-0.1507
44.95	0.09215	-0.1492
45.0	0.09216	-0.1479
45.05	0.09174	-0.1467
45.1	0.09206	-0.1453
45.15	0.09169	-0.1443
45.2	0.09157	-0.1435
45.25	0.09151	-0.1432
45.3	0.09155	-0.1431
45.35	0.09137	-0.1431
45.4	0.09143	-0.1431
45.45	0.0916	-0.1438
45.5	0.09163	-0.144
45.55	0.09164	-0.144
45.6	0.0918	-0.144
45.65	0.09166	-0.144
45.7	0.09145	-0.144
45.75	0.09138	-0.144
45.8	0.09109	-0.1438
45.85	0.09097	-0.1435
45.9	0.09163	-0.143
45.95	0.09196	-0.1417
46.0	0.09215	-0.1401
46.05	0.09206	-0.1388
46.1	0.0921	-0.1373
46.15	0.09181	-0.136
46.2	0.09195	-0.1351
46.25	0.09187	-0.1344
46.3	0.0916	-0.1342
46.35	0.09201	-0.1341
46.4	0.09184	-0.1341
46.45	0.0916	-0.1344
46.5	0.09207	-0.1354
46.55	0.09209	-0.1356
46.6	0.092	-0.1356
46.65	0.09221	-0.1356
46.7	0.09207	-0.1356
46.75	0.09198	-0.1356
46.8	0.09169	-0.1356
46.85	0.09137	-0.1351
46.9	0.09126	-0.1345
46.95	0.09157	-0.1338
47.0	0.09227	-0.1324
47.05	0.09218	-0.1308
47.1	0.09254	-0.1293
47.15	0.0919	-0.1275
47.2	0.09209	-0.126
47.25	0.09198	-0.125
47.3	0.09215	-0.1239
47.35	0.09178	-0.1234
47.4	0.09161	-0.1234
47.45	0.09171	-0.1236
47.5	0.09172	-0.1241
47.55	0.09181	-0.1242
47.6	0.09204	-0.1242
47.65	0.09189	-0.1242
47.7	0.09187	-0.1242
47.75	0.09143	-0.1242
47.8	0.09128	-0.1242
47.85	0.09129	-0.124
47.9	0.09167	-0.1235
47.95	0.09206	-0.1226
48.0	0.09196	-0.1212
48.05	0.092	-0.1195
48.1	0.09209	-0.1178
48.15	0.09203	-0.1163
48.2	0.09175	-0.1151
48.25	0.09161	-0.1135
48.3	0.09193	-0.1123
48.35	0.09195	-0.1112
48.4	0.09178	-0.111
48.45	0.0918	-0.111
48.5	0.09167	-0.1115
48.55	0.09238	-0.1121
48.6	0.09215	-0.1121
48.65	0.09232	-0.1121
48.7	0.09232	-0.1121
48.75	0.09204	-0.1121
48.8	0.09209	-0.1121
48.85	0.09203	-0.112
48.9	0.09219	-0.1116
48.95	0.09198	-0.1109
49.0	0.09258	-0.1096
49.05	0.09279	-0.1074
49.1	0.09242	-0.1054
49.15	0.09239	-0.1035
49.2	0.09209	-0.1022
49.25	0.09227	-0.1013
49.3	0.09232	-0.1006
49.35	0.09232	-0.1003
49.4	0.09216	-0.1002
49.45	0.09215	-0.1003
49.5	0.09235	-0.101
49.55	0.09277	-0.1013
49.6	0.09265	-0.1013
49.65	0.09265	-0.1013
49.7	0.09219	-0.1013
49.75	0.09244	-0.1013
49.8	0.09184	-0.1012
49.85	0.09227	-0.1009
49.9	0.09227	-0.0999
49.95	0.09204	-0.0981
50.0	0.09254	-0.0954
50.05	0.09267	-0.0934
50.1	0.09283	-0.0916
50.15	0.09262	-0.0901
50.2	0.09262	-0.0892
50.25	0.09271	-0.0891
50.3	0.09306	-0.0891
50.35	0.09264	-0.0891
50.4	0.09229	-0.0896
50.45	0.09335	-0.0903
50.5	0.0936	-0.0903
50.55	0.09392	-0.0903
50.6	0.09406	-0.0903
50.65	0.09416	-0.0903
50.7	0.09407	-0.0902
50.75	0.09357	-0.0901
50.8	0.0932	-0.0892
50.85	0.0937	-0.0882
50.9	0.0939	-0.0864
50.95	0.09354	-0.0849
51.0	0.09441	-0.0836
51.05	0.09457	-0.0826
51.1	0.0948	-0.0821
51.15	0.095	-0.0815
51.2	0.09483	-0.0812
51.25	0.09467	-0.0811
51.3	0.0947	-0.0813
51.35	0.09451	-0.0819
51.4	0.09445	-0.082
51.45	0.09465	-0.082
51.5	0.09489	-0.082
51.55	0.09457	-0.082
51.6	0.09477	-0.082
51.65	0.09479	-0.0818
51.7	0.09428	-0.0812
51.75	0.09409	-0.0801
51.8	0.09399	-0.0781
51.85	0.09406	-0.0765
51.9	0.09421	-0.0751
51.95	0.09441	-0.0738
52.0	0.09494	-0.0722
52.05	0.09521	-0.0712
52.1	0.09566	-0.0709
52.15	0.09587	-0.0709
52.2	0.09593	-0.0709
52.25	0.09569	-0.0709
52.3	0.09575	-0.0713
52.35	0.09579	-0.0716
52.4	0.09592	-0.0716
52.45	0.09567	-0.0716
52.5	0.09579	-0.0716
52.55	0.09589	-0.0716
52.6	0.09569	-0.0715
52.65	0.09579	-0.0712
52.7	0.09541	-0.0704
52.75	0.09567	-0.0694
52.8	0.0957	-0.0679
52.85	0.09561	-0.0662
52.9	0.09569	-0.0649
52.95	0.09579	-0.0636
53.0	0.09557	-0.0623
53.05	0.09561	-0.0613
53.1	0.09602	-0.0603
53.15	0.09587	-0.0597
53.2	0.09641	-0.0597
53.25	0.09671	-0.0598
53.3	0.09673	-0.0602
53.35	0.09671	-0.0603
53.4	0.09633	-0.0603
53.45	0.09613	-0.0603
53.5	0.09654	-0.0603
53.55	0.09615	-0.0603
53.6	0.09631	-0.0603
53.65	0.09616	-0.0594
53.7	0.09589	-0.0581
53.75	0.09605	-0.0568
53.8	0.09624	-0.055
53.85	0.09567	-0.0538
53.9	0.09607	-0.0526
53.95	0.09619	-0.0516
54.0	0.09634	-0.0505
54.05	0.09624	-0.0495
54.1	0.09584	-0.0492
54.15	0.09581	-0.0492
54.2	0.09576	-0.0492
54.25	0.09598	-0.0492
54.3	0.09666	-0.0495
54.35	0.09657	-0.0497
54.4	0.09682	-0.0497
54.45	0.09703	-0.0497
54.5	0.09714	-0.0497
54.55	0.09715	-0.0497
54.6	0.09723	-0.0496
54.65	0.09677	-0.0489
54.7	0.09656	-0.0475
54.75	0.0968	-0.0458
54.8	0.09695	-0.0454
54.85	0.09677	-0.0454
54.9	0.09689	-0.0453
54.95	0.09688	-0.0441
55.0	0.09724	-0.0425
55.05	0.09692	-0.041
55.1	0.09724	-0.0397
55.15	0.09723	-0.0385
55.2	0.09732	-0.0373
55.25	0.09703	-0.0369
55.3	0.09715	-0.037
55.35	0.09732	-0.0372
55.4	0.09708	-0.0372
55.45	0.09727	-0.0372
55.5	0.09737	-0.0372
55.55	0.09731	-0.0372
55.6	0.09769	-0.0372
55.65	0.09796	-0.0372
55.7	0.09782	-0.037
55.75	0.09769	-0.0362
55.8	0.09743	-0.0347
55.85	0.09805	-0.0326
55.9	0.09807	-0.0309
55.95	0.09782	-0.0291
56.0	0.09836	-0.0276
56.05	0.09811	-0.0262
56.1	0.09811	-0.0252
56.15	0.09822	-0.0235
56.2	0.0986	-0.0225
56.25	0.09828	-0.0223
56.3	0.09819	-0.0223
56.35	0.09836	-0.0225
56.4	0.09833	-0.0225
56.45	0.09843	-0.0225
56.5	0.09833	-0.0225
56.55	0.09816	-0.0225
56.6	0.09825	-0.0225
56.65	0.09804	-0.0225
56.7	0.09834	-0.0218
56.75	0.09836	-0.0201
56.8	0.09908	-0.0183
56.85	0.09921	-0.0164
56.9	0.09892	-0.015
56.95	0.09874	-0.0135
57.0	0.09874	-0.0124
57.05	0.09898	-0.0105
57.1	0.09863	-0.0102
57.15	0.09859	-0.0102
57.2	0.09813	-0.0104
57.25	0.09537	-0.0104
57.3	0.09402	-0.0104
57.35	0.09363	-0.0104
57.4	0.09383	-0.0104
57.45	0.09377	-0.0104
57.5	0.09537	-0.0103
57.55	0.09734	-0.0099
57.6	0.0984	-0.0088
57.65	0.09929	-0.007
57.7	0.09946	-0.0054
57.75	0.09937	-0.0043
57.8	0.09955	-0.0027
57.85	0.1001	-0.0013
57.9	0.10059	0.00016875
57.95	0.10054	0.0007125
58.0	0.1012	0.0007125
58.05	0.10106	0.00062813
58.1	0.10141	0.000375
58.15	0.10147	0.000375
58.2	0.10124	0.000375
58.25	0.10121	0.000375
58.3	0.10135	0.000375
58.35	0.10091	0.000375
58.4	0.10095	0.000375
58.45	0.10106	0.0007125
58.5	0.10098	0.0007125
58.55	0.10059	0.0007125
58.6	0.1006	0.0007125
58.65	0.10065	0.000675
58.7	0.10068	0.000675
58.75	0.10089	0.000675
58.8	0.10057	0.000675
58.85	0.10056	0.000675
58.9	0.10062	0.0003
58.95	0.10022	-0.0006375
59.0	0.10004	-0.0012
59.05	0.10011	-0.0019
59.1	0.10033	-0.0022
59.15	0.10023	-0.0025
59.2	0.10027	-0.0028
59.25	0.10017	-0.0039
59.3	0.10022	-0.0055
59.35	0.10008	-0.0072
59.4	0.09978	-0.0091
59.45	0.0992	-0.0102
59.5	0.09926	-0.0119
59.55	0.09879	-0.0138
59.6	0.09871	-0.0151
59.65	0.09833	-0.0153
59.7	0.09863	-0.0152
59.75	0.0985	-0.0152
59.8	0.09869	-0.0152
59.85	0.09846	-0.0152
59.9	0.09846	-0.0152
59.95	0.09842	-0.0152
60.0	0.0985	-0.0152
60.05	0.09851	-0.0152
60.1	0.09828	-0.0156
60.15	0.09834	-0.0172
60.2	0.09775	-0.0196
60.25	0.09746	-0.0209
60.3	0.0976	-0.0226
60.35	0.09755	-0.0243
60.4	0.09778	-0.0257
60.45	0.09816	-0.0268
60.5	0.0981	-0.0276
60.55	0.09805	-0.0286
60.6	0.09755	-0.0296
60.65	0.09787	-0.0298
60.7	0.09761	-0.0298
60.75	0.09743	-0.0294
60.8	0.09732	-0.0293
60.85	0.0974	-0.0293
60.9	0.09743	-0.0293
60.95	0.0974	-0.0293
61.0	0.09735	-0.0294
61.05	0.09758	-0.0296
61.1	0.09749	-0.0307
61.15	0.09738	-0.0328
61.2	0.09735	-0.0351
61.25	0.09724	-0.0376
61.3	0.09691	-0.0392
61.35	0.09708	-0.0406
61.4	0.09683	-0.0423
61.45	0.09662	-0.0433
61.5	0.09662	-0.0439
61.55	0.09659	-0.0445
61.6	0.09676	-0.0446
61.65	0.0965	-0.0445
61.7	0.097	-0.0441
61.75	0.09712	-0.0441
61.8	0.09691	-0.0441
61.85	0.09715	-0.0441
61.9	0.09692	-0.0441
61.95	0.09714	-0.0442
62.0	0.09706	-0.0451
62.05	0.09671	-0.0476
62.1	0.09648	-0.0503
62.15	0.09644	-0.0529
62.2	0.09645	-0.0549
62.25	0.0959	-0.056
62.3	0.09613	-0.0574
62.35	0.09592	-0.059
62.4	0.09572	-0.06
62.45	0.09465	-0.0601
62.5	0.09412	-0.0601
62.55	0.09335	-0.0598
62.6	0.09293	-0.0591
62.65	0.09251	-0.0591
62.7	0.09288	-0.0591
62.75	0.09325	-0.0591
62.8	0.09465	-0.0591
62.85	0.09492	-0.0591
62.9	0.09528	-0.0593
62.95	0.09561	-0.0598
63.0	0.09494	-0.061
63.05	0.09416	-0.0631
63.1	0.09393	-0.0652
63.15	0.09409	-0.0672
63.2	0.09474	-0.0687
63.25	0.0946	-0.0704
63.3	0.09439	-0.0719
63.35	0.09348	-0.0731
63.4	0.09322	-0.0743
63.45	0.09264	-0.0754
63.5	0.09251	-0.0757
63.55	0.09239	-0.075
63.6	0.0928	-0.0744
63.65	0.09322	-0.0744
63.7	0.09355	-0.0744
63.75	0.09349	-0.0744
63.8	0.09349	-0.0744
63.85	0.09351	-0.0746
63.9	0.09412	-0.0754
63.95	0.09428	-0.0768
64.0	0.0945	-0.0792
64.05	0.09464	-0.081
64.1	0.09444	-0.0824
64.15	0.09398	-0.0839
64.2	0.0939	-0.0855
64.25	0.09224	-0.0869
64.3	0.09129	-0.088
64.35	0.09167	-0.089
64.4	0.09306	-0.0897
64.45	0.0938	-0.0898
64.5	0.09354	-0.0896
64.55	0.09351	-0.0891
64.6	0.09338	-0.0889
64.65	0.09331	-0.0889
64.7	0.09322	-0.0889
64.75	0.09308	-0.0889
64.8	0.09312	-0.089
64.85	0.09355	-0.0896
64.9	0.09358	-0.0911
64.95	0.09381	-0.0932
65.0	0.09419	-0.0947
65.05	0.0939	-0.0961
65.1	0.09366	-0.0975
65.15	0.09392	-0.0987
65.2	0.09349	-0.0998
65.25	0.09363	-0.101
65.3	0.09349	-0.1022
65.35	0.09329	-0.1026
65.4	0.09311	-0.1025
65.45	0.09294	-0.102
65.5	0.093	-0.1016
65.55	0.09296	-0.1016
65.6	0.09302	-0.1016
65.65	0.09285	-0.1016
65.7	0.09299	-0.1016
65.75	0.09251	-0.1016
65.8	0.09254	-0.1017
65.85	0.09296	-0.1024
65.9	0.09372	-0.1035
65.95	0.09386	-0.1056
66.0	0.09416	-0.1074
66.05	0.09438	-0.1085
66.1	0.09428	-0.1099
66.15	0.09447	-0.1112
66.2	0.09422	-0.1124
66.25	0.09401	-0.1137
66.3	0.09418	-0.1147
66.35	0.09407	-0.1153
66.4	0.09395	-0.1156
66.45	0.09392	-0.1156
66.5	0.09401	-0.1156
66.55	0.09418	-0.1149
66.6	0.09349	-0.1146
66.65	0.09335	-0.1146
66.7	0.09337	-0.1146
66.75	0.09335	-0.1146
66.8	0.09277	-0.1146
66.85	0.09329	-0.1148
66.9	0.09357	-0.1157
66.95	0.09401	-0.1171
67.0	0.09462	-0.1194
67.05	0.09445	-0.1208
67.1	0.09447	-0.1219
67.15	0.09425	-0.1235
67.2	0.09419	-0.1253
67.25	0.09366	-0.1263
67.3	0.0937	-0.127
67.35	0.0937	-0.1277
67.4	0.09369	-0.1278
67.45	0.09381	-0.1277
67.5	0.09357	-0.1273
67.55	0.09334	-0.1271
67.6	0.09317	-0.1271
67.65	0.09338	-0.1271
67.7	0.09332	-0.1271
67.75	0.09293	-0.1271
67.8	0.09288	-0.1272
67.85	0.09325	-0.1278
67.9	0.09363	-0.129
67.95	0.09393	-0.1314
68.0	0.09401	-0.1332
68.05	0.09436	-0.1343
68.1	0.09428	-0.1357
68.15	0.09389	-0.1367
68.2	0.09377	-0.1377
68.25	0.09369	-0.1388
68.3	0.09315	-0.1396
68.35	0.09341	-0.1403
68.4	0.09369	-0.1408
68.45	0.09372	-0.1408
68.5	0.09348	-0.1403
68.55	0.09338	-0.1398
68.6	0.09323	-0.1398
68.65	0.09317	-0.1398
68.7	0.09309	-0.1398
68.75	0.09282	-0.1398
68.8	0.09258	-0.1398
68.85	0.09283	-0.14
68.9	0.09348	-0.1408
68.95	0.09354	-0.1424
69.0	0.09389	-0.1446
69.05	0.09386	-0.1456
69.1	0.09389	-0.1468
69.15	0.09381	-0.1482
69.2	0.09326	-0.1496
69.25	0.09326	-0.151
69.3	0.093	-0.1522
69.35	0.0932	-0.1531
69.4	0.09296	-0.1535
69.45	0.09294	-0.1535
69.5	0.09312	-0.1532
69.55	0.09245	-0.1528
69.6	0.0928	-0.1528
69.65	0.09271	-0.1528
69.7	0.09238	-0.1528
69.75	0.09213	-0.1528
69.8	0.09213	-0.1528
69.85	0.09256	-0.1534
69.9	0.09326	-0.1543
69.95	0.09335	-0.156
70.0	0.09334	-0.1576
70.05	0.09328	-0.1592
70.1	0.09294	-0.1611
70.15	0.09305	-0.163
70.2	0.09245	-0.1647
70.25	0.0927	-0.1659
70.3	0.0925	-0.1666
70.35	0.09247	-0.1669
70.4	0.09276	-0.167
70.45	0.09209	-0.1668
70.5	0.09219	-0.1666
70.55	0.09268	-0.1666
70.6	0.09247	-0.1666
70.65	0.09238	-0.1666
70.7	0.09235	-0.1666
70.75	0.0921	-0.1666
70.8	0.09203	-0.1666
70.85	0.09242	-0.1669
70.9	0.09285	-0.1681
70.95	0.09326	-0.1707
71.0	0.09322	-0.173
71.05	0.09314	-0.174
71.1	0.09273	-0.1753
71.15	0.09262	-0.1764
71.2	0.09238	-0.1773
71.25	0.09242	-0.1784
71.3	0.09248	-0.1795
71.35	0.09222	-0.1804
71.4	0.09236	-0.1804
71.45	0.09215	-0.1803
71.5	0.09198	-0.1801
71.55	0.09245	-0.1801
71.6	0.09264	-0.1801
71.65	0.09245	-0.1801
71.7	0.09193	-0.1801
71.75	0.09221	-0.1801
71.8	0.09175	-0.1801
71.85	0.0921	-0.1801
71.9	0.09265	-0.1801
71.95	0.09277	-0.1801
72.0	0.09273	-0.1801
72.05	0.09261	-0.1801
72.1	0.09245	-0.1801
72.15	0.09227	-0.1801
72.2	0.09253	-0.1801
72.25	0.09169	-0.1801
72.3	0.09207	-0.1801
72.35	0.09195	-0.1801
72.4	0.0921	-0.1801
72.45	0.09204	-0.1801
72.5	0.0919	-0.1801
72.55	0.09218	-0.1801
72.6	0.09241	-0.1801
72.65	0.09158	-0.1801
72.7	0.09135	-0.1801
72.75	0.09135	-0.18
72.8	0.09178	-0.1804
72.85	0.09279	-0.1819
72.9	0.09273	-0.1842
72.95	0.09157	-0.1858
73.0	0.09082	-0.1873
73.05	0.09091	-0.1887
73.1	0.091	-0.1897
73.15	0.09109	-0.1904
73.2	0.09099	-0.1905
73.25	0.09106	-0.1904
73.3	0.09073	-0.19
73.35	0.09158	-0.1899
73.4	0.09187	-0.1899
73.45	0.09213	-0.1899
73.5	0.09198	-0.1899
73.55	0.09177	-0.1899
73.6	0.09151	-0.1899
73.65	0.09164	-0.1902
73.7	0.09161	-0.1908
73.75	0.09233	-0.1919
73.8	0.09218	-0.1931
73.85	0.09253	-0.1945
73.9	0.09305	-0.1969
73.95	0.09309	-0.1993
74.0	0.09294	-0.2013
74.05	0.09285	-0.2029
74.1	0.09259	-0.2039
74.15	0.09279	-0.2042
74.2	0.09253	-0.2041
74.25	0.09222	-0.2034
74.3	0.09193	-0.2034
74.35	0.09172	-0.2034
74.4	0.09161	-0.2034
74.45	0.09196	-0.2034
74.5	0.09178	-0.2034
74.55	0.09167	-0.2034
74.6	0.09148	-0.2034
74.65	0.09128	-0.2034
74.7	0.09128	-0.2038
74.75	0.09108	-0.2049
74.8	0.09113	-0.2067
74.85	0.09062	-0.2087
74.9	0.09117	-0.2101
74.95	0.09129	-0.2111
75.0	0.09212	-0.2124
75.05	0.09244	-0.2137
75.1	0.09274	-0.2148
75.15	0.09253	-0.2151
75.2	0.0916	-0.2151
75.25	0.09154	-0.2147
75.3	0.09058	-0.2141
75.35	0.09128	-0.2141
75.4	0.09088	-0.2141
75.45	0.09119	-0.2141
75.5	0.09122	-0.2141
75.55	0.09128	-0.2141
75.6	0.09116	-0.2141
75.65	0.091	-0.2148
75.7	0.09157	-0.216
75.75	0.09119	-0.2182
75.8	0.09114	-0.2204
75.85	0.09128	-0.2223
75.9	0.09082	-0.2238
75.95	0.091	-0.2251
76.0	0.09161	-0.2266
76.05	0.09186	-0.2276
76.1	0.09262	-0.2284
76.15	0.09251	-0.2286
76.2	0.09207	-0.2285
76.25	0.0918	-0.2279
76.3	0.09108	-0.2276
76.35	0.0914	-0.2276
76.4	0.09119	-0.2276
76.45	0.09113	-0.2276
76.5	0.091	-0.2276
76.55	0.09164	-0.2276
76.6	0.09123	-0.2277
76.65	0.09117	-0.228
76.7	0.09148	-0.229
76.75	0.09175	-0.2306
76.8	0.09154	-0.2326
76.85	0.09129	-0.2341
76.9	0.09087	-0.2357
76.95	0.09071	-0.2373
77.0	0.09091	-0.2388
77.05	0.09177	-0.2402
77.1	0.09253	-0.2412
77.15	0.09299	-0.2419
77.2	0.09288	-0.242
77.25	0.09242	-0.2418
77.3	0.09192	-0.2411
77.35	0.09161	-0.241
77.4	0.09163	-0.241
77.45	0.09125	-0.241
77.5	0.09151	-0.241
77.55	0.0918	-0.241
77.6	0.09178	-0.241
77.65	0.09213	-0.2417
77.7	0.09204	-0.2425
77.75	0.09184	-0.2439
77.8	0.09186	-0.2456
77.85	0.09209	-0.2471
77.9	0.09181	-0.2485
77.95	0.09123	-0.2494
78.0	0.09128	-0.2505
78.05	0.09142	-0.2517
78.1	0.09209	-0.2529
78.15	0.09302	-0.2538
78.2	0.09309	-0.2544
78.25	0.09341	-0.2544
78.3	0.09294	-0.2543
78.35	0.09213	-0.2539
78.4	0.09221	-0.2534
78.45	0.0921	-0.2534
78.5	0.0919	-0.2534
78.55	0.09204	-0.2534
78.6	0.09196	-0.2534
78.65	0.09206	-0.2534
78.7	0.09172	-0.2535
78.75	0.09201	-0.2537
78.8	0.0921	-0.2544
78.85	0.09219	-0.2553
78.9	0.0921	-0.2572
78.95	0.09213	-0.2591
79.0	0.0919	-0.2606
79.05	0.09164	-0.262
79.1	0.09158	-0.2631
79.15	0.09206	-0.2642
79.2	0.09271	-0.2655
79.25	0.09346	-0.2666
79.3	0.0936	-0.2672
79.35	0.09338	-0.2673
79.4	0.09241	-0.2673
79.45	0.09273	-0.2672
79.5	0.09288	-0.2667
79.55	0.09193	-0.2662
79.6	0.09207	-0.2662
79.65	0.09209	-0.2662
79.7	0.09233	-0.2662
79.75	0.09235	-0.2662
79.8	0.09236	-0.2662
79.85	0.09242	-0.2666
79.9	0.09209	-0.2672
79.95	0.09233	-0.2685
80.0	0.09233	-0.2707
80.05	0.0921	-0.2723
80.1	0.09222	-0.274
80.15	0.09271	-0.2755
80.2	0.09297	-0.2767
80.25	0.0934	-0.2776
80.3	0.09393	-0.2786
80.35	0.09419	-0.2796
80.4	0.09448	-0.2803
80.45	0.09375	-0.2803
80.5	0.09349	-0.28
80.55	0.09343	-0.2795
80.6	0.09332	-0.2794
80.65	0.09357	-0.2794
80.7	0.09358	-0.2794
80.75	0.09335	-0.2794
80.8	0.09331	-0.2794
80.85	0.09358	-0.2795
80.9	0.09311	-0.2801
80.95	0.0934	-0.2813
81.0	0.09329	-0.2833
81.05	0.09323	-0.2852
81.1	0.09285	-0.2865
81.15	0.0929	-0.2879
81.2	0.09262	-0.2892
81.25	0.09303	-0.2905
81.3	0.0934	-0.2917
81.35	0.09389	-0.2926
81.4	0.09424	-0.2936
81.45	0.09451	-0.2938
81.5	0.09482	-0.2938
81.55	0.09431	-0.2938
81.6	0.09348	-0.293
81.65	0.09375	-0.293
81.7	0.09334	-0.293
81.75	0.09351	-0.293
81.8	0.09361	-0.293
81.85	0.09378	-0.293
81.9	0.09378	-0.293
81.95	0.09369	-0.2931
82.0	0.09392	-0.294
82.05	0.09398	-0.2954
82.1	0.09375	-0.2973
82.15	0.09378	-0.2994
82.2	0.09384	-0.3013
82.25	0.09348	-0.3028
82.3	0.09309	-0.304
82.35	0.09337	-0.3053
82.4	0.09366	-0.3062
82.45	0.09436	-0.3069
82.5	0.09447	-0.3073
82.55	0.09496	-0.3073
82.6	0.09473	-0.3069
82.65	0.09474	-0.3068
82.7	0.09457	-0.3068
82.75	0.09454	-0.3068
82.8	0.09441	-0.3068
82.85	0.09451	-0.3068
82.9	0.09442	-0.3068
82.95	0.09454	-0.307
83.0	0.09424	-0.3075
83.05	0.09473	-0.309
83.1	0.09456	-0.3115
83.15	0.09477	-0.3139
83.2	0.09486	-0.3163
83.25	0.09502	-0.3186
83.3	0.09415	-0.3203
83.35	0.09424	-0.3209
83.4	0.09428	-0.321
83.45	0.0937	-0.321
83.5	0.09409	-0.321
83.55	0.09476	-0.321
83.6	0.09506	-0.3207
83.65	0.09564	-0.3205
83.7	0.09547	-0.3205
83.75	0.09558	-0.3205
83.8	0.09523	-0.3205
83.85	0.0948	-0.3205
83.9	0.09526	-0.3205
83.95	0.09506	-0.3204
84.0	0.09531	-0.3205
84.05	0.09547	-0.3214
84.1	0.09558	-0.3231
84.15	0.09561	-0.3258
84.2	0.09579	-0.3279
84.25	0.09605	-0.3305
84.3	0.09621	-0.3325
84.35	0.09619	-0.3341
84.4	0.09567	-0.3358
84.45	0.0956	-0.3368
84.5	0.09564	-0.3374
84.55	0.09511	-0.3376
84.6	0.09517	-0.3375
84.65	0.09517	-0.3368
84.7	0.0956	-0.3368
84.75	0.09633	-0.3368
84.8	0.09656	-0.3368
84.85	0.09663	-0.3368
84.9	0.0966	-0.3368
84.95	0.09662	-0.337
85.0	0.09651	-0.3378
85.05	0.09665	-0.3392
85.1	0.0966	-0.3407
85.15	0.0965	-0.3409
85.2	0.09639	-0.3409
85.25	0.09656	-0.3409
85.3	0.09627	-0.3409
85.35	0.09641	-0.3409
85.4	0.09663	-0.3409
85.45	0.09644	-0.3409
85.5	0.09668	-0.3409
85.55	0.09641	-0.3409
85.6	0.09647	-0.3407
85.65	0.09627	-0.3405
85.7	0.09607	-0.3405
85.75	0.09489	-0.3405
85.8	0.09419	-0.3405
85.85	0.0957	-0.3404
85.9	0.09581	-0.3401
85.95	0.09645	-0.3392
86.0	0.09666	-0.3386
86.05	0.09727	-0.3373
86.1	0.09712	-0.3364
86.15	0.09721	-0.3358
86.2	0.09711	-0.3351
86.25	0.09666	-0.3338
86.3	0.0965	-0.3321
86.35	0.09634	-0.3303
86.4	0.09631	-0.3287
86.45	0.09645	-0.3268
86.5	0.09602	-0.3243
86.55	0.09581	-0.3226
86.6	0.09546	-0.322
86.65	0.09558	-0.322
86.7	0.09561	-0.322
86.75	0.09549	-0.3221
86.8	0.0955	-0.3221
86.85	0.09546	-0.3221
86.9	0.09515	-0.3221
86.95	0.09523	-0.3221
87.0	0.0947	-0.3221
87.05	0.09468	-0.322
87.1	0.09489	-0.3213
87.15	0.09555	-0.3191
87.2	0.09613	-0.3168
87.25	0.09593	-0.3151
87.3	0.09618	-0.3127
87.35	0.09564	-0.3108
87.4	0.09547	-0.3098
87.45	0.0955	-0.3082
87.5	0.09502	-0.3065
87.55	0.09471	-0.3055
87.6	0.09489	-0.3052
87.65	0.09467	-0.3052
87.7	0.09467	-0.3055
87.75	0.09492	-0.3059
87.8	0.09482	-0.3059
87.85	0.09441	-0.3059
87.9	0.09431	-0.3059
87.95	0.09436	-0.3059
88.0	0.09447	-0.3056
88.05	0.09447	-0.3046
88.1	0.09413	-0.3031
88.15	0.09363	-0.3005
88.2	0.09334	-0.2988
88.25	0.09381	-0.2976
88.3	0.09415	-0.2961
88.35	0.09427	-0.2941
88.4	0.09451	-0.2928
88.45	0.0945	-0.291
88.5	0.09441	-0.2891
88.55	0.09416	-0.2889
88.6	0.09369	-0.2889
88.65	0.09361	-0.289
88.7	0.0941	-0.2897
88.75	0.09393	-0.2904
88.8	0.09404	-0.2905
88.85	0.09415	-0.2905
88.9	0.09386	-0.2905
88.95	0.0939	-0.2905
89.0	0.09363	-0.2897
89.05	0.09366	-0.2894
89.1	0.09358	-0.2885
89.15	0.09332	-0.2868
89.2	0.09309	-0.2843
89.25	0.09323	-0.2825
89.3	0.09312	-0.2813
89.35	0.09247	-0.2798
89.4	0.09256	-0.2787
89.45	0.09282	-0.2771
89.5	0.09276	-0.2747
89.55	0.09343	-0.2727
89.6	0.09367	-0.2721
89.65	0.09364	-0.2721
89.7	0.09367	-0.2721
89.75	0.09331	-0.2728
89.8	0.09319	-0.2735
89.85	0.09344	-0.2735
89.9	0.09334	-0.2735
89.95	0.09344	-0.2735
90.0	0.09343	-0.2735
90.05	0.09328	-0.2728
90.1	0.09286	-0.272
90.15	0.09314	-0.2705
90.2	0.09291	-0.268
90.25	0.09286	-0.2648
90.3	0.09248	-0.2623
90.35	0.09222	-0.2606
90.4	0.09238	-0.2592
90.45	0.09195	-0.2577
90.5	0.09158	-0.2563
90.55	0.09146	-0.2549
90.6	0.09224	-0.254
90.65	0.09279	-0.254
90.7	0.09294	-0.2542
90.75	0.09312	-0.2554
90.8	0.09308	-0.2557
90.85	0.09274	-0.2557
90.9	0.09267	-0.2557
90.95	0.09274	-0.2557
91.0	0.09262	-0.2557
91.05	0.09224	-0.2546
91.1	0.09224	-0.2527
91.15	0.09253	-0.2495
91.2	0.09219	-0.2462
91.25	0.09247	-0.2435
91.3	0.09203	-0.2408
91.35	0.09233	-0.2385
91.4	0.09181	-0.2368
91.45	0.0918	-0.2353
91.5	0.0916	-0.2338
91.55	0.09145	-0.2327
91.6	0.09142	-0.2325
91.65	0.09128	-0.2328
91.7	0.09184	-0.2338
91.75	0.09251	-0.2342
91.8	0.09312	-0.2342
91.85	0.09299	-0.2342
91.9	0.0929	-0.2342
91.95	0.09248	-0.2342
92.0	0.09221	-0.2335
92.05	0.09196	-0.232
92.1	0.09187	-0.2294
92.15	0.0921	-0.2267
92.2	0.09189	-0.2246
92.25	0.09203	-0.2221
92.3	0.0914	-0.2201
92.35	0.09175	-0.2186
92.4	0.09164	-0.2174
92.45	0.09175	-0.2159
92.5	0.09164	-0.2141
92.55	0.09151	-0.2134
92.6	0.09119	-0.2133
92.65	0.09113	-0.2133
92.7	0.09122	-0.2135
92.75	0.09172	-0.2146
92.8	0.09183	-0.2148
92.85	0.09258	-0.2148
92.9	0.09299	-0.2148
92.95	0.09279	-0.2148
93.0	0.09283	-0.2148
93.05	0.09189	-0.2138
93.1	0.09183	-0.2128
93.15	0.0916	-0.2108
93.2	0.09183	-0.2074
93.25	0.09167	-0.2056
93.3	0.09152	-0.2037
93.35	0.09177	-0.2016
93.4	0.09172	-0.2005
93.45	0.09177	-0.1995
93.5	0.09135	-0.1979
93.55	0.0914	-0.1962
93.6	0.0916	-0.1957
93.65	0.09128	-0.1952
93.7	0.09114	-0.1948
93.75	0.09119	-0.1947
93.8	0.09131	-0.195
93.85	0.09209	-0.1965
93.9	0.0921	-0.1965
93.95	0.09264	-0.1965
94.0	0.0928	-0.1965
94.05	0.09283	-0.1965
94.1	0.09254	-0.1961
94.15	0.09193	-0.1956
94.2	0.0918	-0.1942
94.25	0.09187	-0.1919
94.3	0.09186	-0.1898
94.35	0.0919	-0.1879
94.4	0.09186	-0.1863
94.45	0.09201	-0.1853
94.5	0.09172	-0.1839
94.55	0.09158	-0.1823
94.6	0.09178	-0.1805
94.65	0.0914	-0.1789
94.7	0.09152	-0.1776
94.75	0.09138	-0.1764
94.8	0.09135	-0.1762
94.85	0.0916	-0.1766
94.9	0.09169	-0.1774
94.95	0.09196	-0.1774
95.0	0.09233	-0.1774
95.05	0.09279	-0.1774
95.1	0.09241	-0.1774
95.15	0.09239	-0.1771
95.2	0.09186	-0.1767
95.25	0.092	-0.1761
95.3	0.09171	-0.1747
95.35	0.09209	-0.173
95.4	0.09171	-0.1713
95.45	0.09238	-0.1694
95.5	0.09183	-0.1675
95.55	0.09209	-0.1657
95.6	0.0918	-0.1638
95.65	0.09195	-0.1616
95.7	0.0919	-0.1602
95.75	0.09193	-0.1591
95.8	0.09178	-0.1584
95.85	0.09161	-0.1583
95.9	0.09163	-0.1583
95.95	0.09207	-0.1589
96.0	0.09229	-0.1593
96.05	0.0928	-0.1593
96.1	0.09296	-0.1593
96.15	0.09344	-0.1593
96.2	0.09299	-0.1593
96.25	0.09271	-0.1588
96.3	0.09251	-0.158
96.35	0.09241	-0.1563
96.4	0.09256	-0.1542
96.45	0.09248	-0.1526
96.5	0.09242	-0.1507
96.55	0.09286	-0.1489
96.6	0.09254	-0.1472
96.65	0.09251	-0.145
96.7	0.09264	-0.1428
96.75	0.09258	-0.1404
96.8	0.09254	-0.1392
96.85	0.09253	-0.1392
96.9	0.09262	-0.1393
96.95	0.09248	-0.1403
97.0	0.09213	-0.1406
97.05	0.09241	-0.1406
97.1	0.09241	-0.1406
97.15	0.09291	-0.1406
97.2	0.09349	-0.1406
97.25	0.09386	-0.1403
97.3	0.09332	-0.1396
97.35	0.09325	-0.1391
97.4	0.09251	-0.1385
97.45	0.09241	-0.1375
97.5	0.0925	-0.1355
97.55	0.09268	-0.1333
97.6	0.09296	-0.1321
97.65	0.09309	-0.1307
97.7	0.09314	-0.1292
97.75	0.09322	-0.1276
97.8	0.09315	-0.1252
97.85	0.09326	-0.1225
97.9	0.09338	-0.1217
97.95	0.09285	-0.1216
98.0	0.09285	-0.1216
98.05	0.09323	-0.122
98.1	0.09325	-0.1231
98.15	0.093	-0.1233
98.2	0.09276	-0.1233
98.25	0.09328	-0.1233
98.3	0.09377	-0.1232
98.35	0.09419	-0.1225
98.4	0.09433	-0.122
98.45	0.09418	-0.1208
98.5	0.09404	-0.1179
98.55	0.09346	-0.1146
98.6	0.09346	-0.1116
98.65	0.09337	-0.1093
98.7	0.09332	-0.1072
98.75	0.09329	-0.1053
98.8	0.09334	-0.1037
98.85	0.09349	-0.1021
98.9	0.09337	-0.1006
98.95	0.0934	-0.1
99.0	0.09337	-0.1002
99.05	0.09404	-0.1009
99.1	0.09386	-0.1012
99.15	0.09346	-0.1012
99.2	0.09351	-0.1012
99.25	0.09323	-0.1012
99.3	0.09283	-0.1012
99.35	0.09338	-0.101
99.4	0.09334	-0.0999
99.45	0.0946	-0.0981
99.5	0.09464	-0.095
99.55	0.09442	-0.0921
99.6	0.09453	-0.0895
99.65	0.09393	-0.0876
99.7	0.09399	-0.086
99.75	0.09399	-0.0841
99.8	0.09404	-0.0825
99.85	0.09401	-0.0811
99.9	0.09407	-0.0796
99.95	0.09413	-0.0787
100.0	0.09433	-0.0786
100.05	0.09462	-0.0791
100.1	0.09489	-0.0794
100.15	0.09474	-0.0795
100.2	0.09476	-0.0795
100.25	0.0948	-0.0795
100.3	0.09467	-0.0795
100.35	0.09401	-0.0794
100.4	0.09329	-0.0785
100.45	0.09323	-0.0767
100.5	0.09323	-0.0742
100.55	0.09422	-0.071
100.6	0.09492	-0.0685
100.65	0.09528	-0.0667
100.7	0.09563	-0.0641
100.75	0.09564	-0.0617
100.8	0.09584	-0.0595
100.85	0.09613	-0.0573
100.9	0.09631	-0.0559
100.95	0.09607	-0.0555
101.0	0.09665	-0.0556
101.05	0.09671	-0.0558
101.1	0.09659	-0.0559
101.15	0.09666	-0.0559
101.2	0.09665	-0.0559
101.25	0.09653	-0.0559
101.3	0.09659	-0.0559
101.35	0.09615	-0.0558
101.4	0.09583	-0.0547
101.45	0.09579	-0.0517
101.5	0.0959	-0.0486
101.55	0.09572	-0.0461
101.6	0.09647	-0.0443
101.65	0.09637	-0.0424
101.7	0.09605	-0.0403
101.75	0.09637	-0.0384
101.8	0.09642	-0.0365
101.85	0.09746	-0.035
101.9	0.09782	-0.0336
101.95	0.09819	-0.0328
102.0	0.0983	-0.0326
102.05	0.09856	-0.0329
102.1	0.09846	-0.033
102.15	0.09837	-0.033
102.2	0.09804	-0.033
102.25	0.09827	-0.033
102.3	0.0981	-0.033
102.35	0.09785	-0.0327
102.4	0.09747	-0.032
102.45	0.09772	-0.0301
102.5	0.09747	-0.0277
102.55	0.09804	-0.0252
102.6	0.09804	-0.023
102.65	0.09822	-0.0218
102.7	0.09792	-0.0203
102.75	0.09808	-0.0186
102.8	0.09808	-0.0168
102.85	0.09833	-0.0154
102.9	0.0985	-0.0135
102.95	0.09854	-0.0117
103.0	0.09879	-0.0107
103.05	0.09903	-0.0107
103.1	0.09923	-0.0109
103.15	0.09973	-0.011
103.2	0.0999	-0.011
103.25	0.10007	-0.011
103.3	0.1001	-0.011
103.35	0.0999	-0.011
103.4	0.09987	-0.0109
103.45	0.09982	-0.0103
103.5	0.09949	-0.0097
103.55	0.09972	-0.0079
103.6	0.09985	-0.0053
103.65	0.10016	-0.0033
103.7	0.10031	-0.0012
103.75	0.10056	0.00045937
103.8	0.10054	0.0007125
103.85	0.10039	0.0007125
103.9	0.1003	0.0007125
103.95	0.1001	0.0007125
104.0	0.10016	0.0007125
104.05	0.10022	0.0007125
104.1	0.09991	0.0007125
104.15	0.09976	0.0007125
104.2	0.09969	0.0007125
104.25	0.10056	0.0007125
104.3	0.10063	0.0007125
104.35	0.10103	0.0006
104.4	0.10146	0.0004875
104.45	0.10158	0.0004875
104.5	0.10143	0.0004875
104.55	0.10133	0.0004875
104.6	0.10109	0.0004875
104.65	0.10115	0.0004875
104.7	0.10132	0.0004875
104.75	0.10117	0.0004875
104.8	0.10098	0.0004875
104.85	0.10101	0.0004875
104.9	0.10071	0.0004875
104.95	0.10085	0.0004875
105.0	0.10089	0.0004875
105.05	0.10104	0.0004875
105.1	0.101	0.0004875
105.15	0.10112	0.0004875
105.2	0.10112	0.0004875
105.25	0.10117	0.0004875
105.3	0.10097	0.0004875
105.35	0.10094	0.0004875
105.4	0.10089	0.0004875
105.45	0.10097	0.0004875
105.5	0.10075	0.0004875
105.55	0.10118	0.0004875
105.6	0.10089	0.0004875
105.65	0.10097	0.0004875
105.7	0.10106	0.0004875
105.75	0.1013	0.0004875
105.8	0.10109	0.0004875
105.85	0.10129	0.0004875
105.9	0.10124	0.0004875
105.95	0.10127	0.0004875
106.0	0.10115	0.0004875
106.05	0.10129	0.0004875
106.1	0.10094	0.0004875
106.15	0.10107	0.0004875
106.2	0.10081	0.0004875
106.25	0.10094	0.0004875
106.3	0.10101	0.0004875
106.35	0.10098	0.0004875
106.4	0.10109	0.0004875
106.45	0.10074	0.0004875
106.5	0.10092	0.0004875
106.55	0.10098	0.0004875
106.6	0.10104	0.0004875
106.65	0.10081	0.0004875
106.7	0.10065	0.0004875
106.75	0.10095	0.0004875
106.8	0.101	0.0004875
106.85	0.101	0.0004875
106.9	0.10118	0.0004875
106.95	0.1008	0.0004875
107.0	0.10104	0.0004875
107.05	0.10146	0.0004875
